# Mains_Frequency_(Hz) =,60,,,,,,,,,,
# Sample_Frequency_(Hz) =,300,,,,,,,,,,
# Sensor_Data_Units =,uV,,,,,,,,,,
# Headset_Name =,DSI-7 SN:6717,,,,,,,,,,
# Data_Logger =,DSI-Streamer-v.1.08.119,,,,,,,,,,
# Date =,3/6/2026,,,,,,,,,,
# Time =, 17:55:32.462 ,,,,,,,,,,
# Patient_ID =,X M 01-JAN-2000 X,,,,,,,,,,
# Record_ID =,Startdate 06-MAR-2026 EEG_XX X X,,,,,,,,,,
# EEG Filter Settings =,Non-Filtered,,,,,,,,,,
# Comments =,,,,,,,,,,,
# Reference location:,Pz,,,,,,,,,,
Time,LE,F4,C4,P4,P3,C3,F3,Pz,Trigger,Time_Offset,ADC_Status,ADC_Sequence,Event,Comments
0.0033,230.4,-237.0,4.8,80.1,102.0,-35.7,-165.3,0,0,6,0,146,0,
0.0067,232.2,-229.5,-7.8,75.0,105.0,-32.1,-162.9,0,0,12,0,147,0,
0.0100,239.1,-231.3,-6.3,70.5,103.8,-30.3,-164.1,0,0,18,0,148,0,
0.0133,232.2,-232.2,4.2,77.7,99.0,-33.9,-166.5,0,0,24,0,149,0,
0.0167,229.2,-244.8,-15.9,69.0,98.1,-33.3,-163.8,0,0,30,0,150,0,
0.0200,222.0,-246.0,-2.4,69.3,100.5,-33.9,-164.4,0,0,36,0,151,0,
0.0233,233.4,-236.1,1.8,66.0,104.7,-25.5,-155.1,0,0,42,0,152,0,
0.0267,232.2,-233.1,0.6,72.9,102.6,-27.3,-160.5,0,0,48,0,153,0,
0.0300,235.2,-246.3,16.2,66.6,106.5,-16.5,-153.6,0,0,54,0,154,0,
0.0333,233.4,-234.0,-4.2,69.3,101.1,-36.6,-158.1,0,0,60,0,155,0,
0.0367,223.2,-243.3,-8.4,66.9,103.5,-20.4,-161.7,0,0,66,0,156,0,
0.0400,219.3,-265.2,-27.0,62.1,91.2,-45.9,-176.7,0,0,72,0,157,0,
0.0433,217.8,-253.2,-14.7,60.0,90.0,-39.6,-177.3,0,0,78,0,158,0,
0.0467,222.9,-261.0,-11.1,66.9,93.0,-46.5,-184.8,0,0,84,0,159,0,
0.0500,224.7,-248.7,0.3,75.6,100.5,-15.9,-178.8,0,0,90,0,160,0,
0.0533,235.8,-246.0,28.8,80.7,100.5,-40.5,-169.5,0,0,96,0,161,0,
0.0567,237.3,-242.1,-10.8,68.4,103.2,-32.1,-157.5,0,0,102,0,162,0,
0.0600,234.3,-247.5,-4.5,75.3,108.3,-27.3,-164.4,0,0,108,0,163,0,
0.0633,233.1,-236.4,2.7,75.9,107.7,-30.3,-141.9,0,0,114,0,164,0,
0.0667,236.7,-237.9,4.5,75.6,105.6,-27.0,-171.0,0,0,120,0,165,0,
0.0700,240.6,-239.1,-0.3,77.4,106.8,-34.2,-167.7,0,0,126,0,166,0,
0.0733,238.5,-239.1,4.5,82.8,111.6,-33.6,-164.4,0,0,132,0,167,0,
0.0767,229.5,-235.8,11.4,86.7,107.7,-35.1,-159.3,0,0,138,0,168,0,
0.0800,237.0,-233.1,20.1,87.0,109.8,-26.1,-150.0,0,0,144,0,169,0,
0.0833,227.1,-246.6,9.9,87.6,104.7,-36.0,-173.7,0,0,150,0,170,0,
0.0867,223.2,-247.5,9.9,77.7,100.2,-44.1,-171.0,0,0,156,0,171,0,
0.0900,222.0,-244.2,9.6,79.5,99.9,-38.7,-173.4,0,0,162,0,172,0,
0.0933,231.9,-235.2,3.3,80.1,99.3,-45.0,-175.8,0,0,168,0,173,0,
0.0967,224.4,-240.0,23.7,80.4,99.0,-41.1,-176.4,0,0,174,0,174,0,
0.1000,232.5,-243.3,-7.5,83.7,102.3,-38.1,-170.4,0,0,180,0,175,0,
0.1033,233.7,-233.4,22.8,88.2,108.6,-30.0,-162.0,0,0,186,0,176,0,
0.1067,240.0,-241.5,-2.4,89.7,117.9,-20.7,-154.8,0,0,192,0,177,0,
0.1100,227.4,-244.8,22.8,89.7,101.7,-38.7,-168.0,0,0,198,0,178,0,
0.1133,244.5,-241.5,-6.9,78.6,113.7,-4.2,-130.8,0,0,204,0,179,0,
0.1167,252.3,-240.6,19.2,91.2,119.4,-13.5,-154.5,0,0,210,0,180,0,
0.1200,246.6,-238.2,6.0,88.8,108.9,-30.0,-158.1,0,0,216,0,181,0,
0.1233,235.8,-237.0,17.4,84.0,105.9,-25.2,-165.3,0,0,222,0,182,0,
0.1267,239.1,-237.0,15.0,80.1,102.9,-24.0,-161.4,0,0,228,0,183,0,
0.1300,242.4,-231.0,15.6,88.2,111.9,-21.0,-154.5,0,0,234,0,184,0,
0.1333,243.3,-240.3,10.8,87.0,113.1,-18.3,-155.7,0,0,240,0,185,0,
0.1367,240.9,-228.3,26.4,83.1,112.5,-15.6,-159.3,0,0,246,0,186,0,
0.1400,239.1,-239.4,-8.4,70.8,105.6,-16.5,-147.6,0,0,252,0,187,0,
0.1433,234.0,-234.0,4.5,78.3,98.1,-39.9,-160.8,0,0,258,0,188,0,
0.1467,232.5,-246.9,2.1,75.3,106.2,-34.5,-163.5,0,0,264,0,189,0,
0.1500,227.7,-256.5,11.7,81.0,105.9,-33.0,-166.8,0,0,270,0,190,0,
0.1533,230.7,-252.3,-9.9,73.5,112.5,-24.6,-160.5,0,0,276,0,191,0,
0.1567,237.0,-253.5,32.1,79.8,115.8,-22.2,-164.4,0,0,282,0,192,0,
0.1600,226.2,-252.9,-12.9,78.0,109.5,-28.2,-160.5,0,0,288,0,193,0,
0.1633,228.6,-240.6,17.1,84.0,114.6,-18.0,-167.1,0,0,294,0,194,0,
0.1667,227.4,-259.2,-3.6,73.2,105.9,-30.3,-159.0,0,0,300,0,195,0,
0.1700,228.9,-250.2,12.9,85.2,106.2,-27.3,-162.0,0,0,306,0,196,0,
0.1733,228.0,-247.5,13.8,81.3,100.5,-27.3,-140.7,0,0,312,0,197,0,
0.1767,231.6,-242.4,36.3,80.4,108.9,-14.4,-156.3,0,0,318,0,198,0,
0.1800,235.5,-254.7,-21.3,76.5,105.3,-14.1,-127.8,0,0,324,0,199,0,
0.1833,232.8,-260.4,5.7,79.5,105.0,-18.3,-163.8,0,0,330,0,200,0,
0.1867,232.2,-247.8,13.2,74.4,107.1,-15.9,-157.8,0,0,336,0,201,0,
0.1900,227.7,-254.1,-7.2,69.0,100.8,-12.9,-164.1,0,0,342,0,202,0,
0.1933,220.8,-257.4,6.3,74.1,96.3,-42.3,-164.7,0,0,348,0,203,0,
0.1967,233.4,-250.8,-0.3,72.6,109.8,-14.7,-155.4,0,0,354,0,204,0,
0.2000,236.1,-244.8,16.5,80.4,116.1,-1.8,-153.3,0,0,360,0,205,0,
0.2033,231.0,-260.7,7.5,78.6,106.2,-34.8,-166.5,0,0,366,0,206,0,
0.2067,242.4,-239.4,9.0,78.3,108.9,-17.7,-148.8,0,0,372,0,207,0,
0.2100,232.5,-247.5,51.3,81.3,107.1,-21.6,-156.0,0,0,378,0,208,0,
0.2133,224.1,-254.1,2.7,75.0,106.8,-19.8,-158.1,0,0,384,0,209,0,
0.2167,211.2,-267.0,-17.4,70.2,99.6,-29.4,-162.0,0,0,390,0,210,0,
0.2200,218.7,-269.4,-9.6,73.8,102.6,-23.7,-160.8,0,0,396,0,211,0,
0.2233,235.2,-253.8,-1.8,75.3,105.3,-28.5,-168.0,0,0,402,0,212,0,
0.2267,221.4,-260.1,3.0,71.4,99.0,-33.9,-161.7,0,0,408,0,213,0,
0.2300,218.1,-267.9,-12.9,65.4,96.6,-33.9,-170.1,0,0,414,0,214,0,
0.2333,225.3,-269.1,6.6,72.3,103.5,-31.8,-169.2,0,0,420,0,215,0,
0.2367,210.3,-265.8,3.9,69.6,104.4,-20.7,-170.7,0,0,426,0,216,0,
0.2400,211.2,-276.9,-13.8,68.1,96.6,-44.4,-188.1,0,0,432,0,217,0,
0.2433,213.3,-266.1,-0.6,66.0,92.7,-30.9,-172.5,0,0,438,0,218,0,
0.2467,212.1,-271.8,-7.5,63.0,92.7,-39.3,-184.5,0,0,444,0,219,0,
0.2500,212.7,-272.7,-16.5,65.4,97.8,-36.6,-192.0,0,0,450,0,220,0,
0.2533,214.8,-271.8,-14.7,64.2,97.5,-36.0,-173.1,0,0,456,0,221,0,
0.2567,222.9,-249.6,6.3,75.6,102.9,-28.8,-165.3,0,0,462,0,222,0,
0.2600,226.8,-259.2,28.8,78.9,112.2,-11.1,-156.9,0,0,468,0,223,0,
0.2633,225.3,-250.2,-6.9,63.9,111.0,-25.8,-164.1,0,0,474,0,224,0,
0.2667,223.5,-272.1,17.7,72.6,110.1,-31.5,-154.2,0,0,480,0,225,0,
0.2700,222.0,-266.1,10.8,74.7,112.8,-24.3,-175.8,0,0,486,0,226,0,
0.2733,209.7,-271.8,-12.0,73.8,108.0,-29.1,-173.7,0,0,492,0,227,0,
0.2767,226.2,-271.8,8.1,73.8,111.3,-14.4,-164.1,0,0,498,0,228,0,
0.2800,216.0,-272.4,21.6,80.1,105.0,-36.3,-172.5,0,0,504,0,229,0,
0.2833,222.6,-279.6,-4.5,75.9,102.0,-38.7,-181.5,0,0,510,0,230,0,
0.2867,235.2,-260.7,11.7,70.5,110.7,-17.1,-162.6,0,0,516,0,231,0,
0.2900,226.5,-252.0,16.2,71.4,104.4,-38.1,-179.4,0,0,522,0,232,0,
0.2933,222.6,-273.0,-3.0,77.4,108.3,-34.8,-162.6,0,0,528,0,233,0,
0.2967,219.0,-265.5,7.5,72.6,107.1,-27.6,-172.5,0,0,534,0,234,0,
0.3000,228.3,-265.5,-1.8,74.4,103.2,-29.7,-195.0,0,0,540,0,235,0,
0.3033,238.8,-260.4,15.3,85.5,105.6,-35.4,-170.4,0,0,546,0,236,0,
0.3067,221.1,-274.8,4.5,88.5,106.5,-36.0,-174.9,0,0,552,0,237,0,
0.3100,222.0,-270.9,27.9,85.2,106.2,-30.9,-175.8,0,0,558,0,238,0,
0.3133,234.0,-267.3,-15.3,80.7,102.9,-34.2,-178.8,0,0,564,0,239,0,
0.3167,230.7,-272.7,16.5,81.3,105.0,-32.7,-180.0,0,0,570,0,240,0,
0.3200,225.9,-280.8,4.8,81.0,105.6,-25.8,-172.2,0,0,576,0,241,0,
0.3233,230.4,-274.8,-0.3,81.3,102.3,-30.6,-170.4,0,0,582,0,242,0,
0.3267,216.9,-289.5,-9.6,78.3,100.5,-34.5,-174.9,0,0,588,0,243,0,
0.3300,223.2,-275.1,4.5,80.7,110.1,-24.3,-169.5,0,0,594,0,244,0,
0.3333,215.7,-277.2,9.9,83.4,108.3,-6.9,-163.2,0,0,600,0,245,0,
0.3367,217.5,-284.7,22.5,79.2,96.0,-59.7,-173.4,0,0,606,0,246,0,
0.3400,218.7,-279.0,11.1,77.7,104.4,-24.3,-177.6,0,0,612,0,247,0,
0.3433,229.8,-283.5,2.1,77.7,105.6,-28.2,-183.9,0,0,618,0,248,0,
0.3467,230.7,-273.6,27.0,87.3,106.2,-32.7,-164.4,0,0,624,0,249,0,
0.3500,224.7,-290.7,29.1,82.5,105.3,-26.1,-170.7,0,0,630,0,250,0,
0.3533,227.1,-284.7,26.1,91.2,109.2,-27.6,-172.8,0,0,636,0,251,0,
0.3567,228.0,-291.0,-14.4,84.3,107.4,-28.2,-172.5,0,0,642,0,252,0,
0.3600,216.6,-290.1,-2.1,84.3,109.2,-31.2,-176.4,0,0,648,0,253,0,
0.3633,204.3,-300.9,-3.9,71.1,95.1,-41.4,-190.5,0,0,654,0,254,0,
0.3667,210.9,-292.2,-1.5,76.2,102.6,-30.6,-180.6,0,0,660,0,255,0,
0.3700,201.6,-310.5,-2.1,71.4,97.2,-39.9,-194.7,0,0,666,0,0,0,
0.3733,203.1,-296.1,1.2,75.3,99.6,-39.3,-182.7,0,0,672,0,1,0,
0.3767,208.2,-299.7,-2.4,76.2,106.8,-36.3,-178.5,0,0,678,0,2,0,
0.3800,215.4,-294.3,-4.8,77.4,103.8,-30.6,-171.6,0,0,684,0,3,0,
0.3833,198.3,-308.7,-2.7,70.2,105.0,-34.5,-177.3,0,0,690,0,4,0,
0.3867,198.9,-312.0,-7.5,67.2,96.6,-44.1,-195.0,0,0,696,0,5,0,
0.3900,191.7,-312.9,-0.6,64.5,102.3,-39.0,-187.2,0,0,702,0,6,0,
0.3933,213.9,-308.4,-2.4,78.3,98.1,-46.5,-180.3,0,0,708,0,7,0,
0.3967,224.4,-285.0,-18.3,75.3,111.0,-25.8,-163.2,0,0,714,0,8,0,
0.4000,216.9,-292.8,5.1,80.1,109.2,-30.3,-164.4,0,0,720,0,9,0,
0.4033,205.5,-301.8,-9.9,73.8,105.0,-15.6,-171.0,0,0,726,0,10,0,
0.4067,199.2,-306.0,5.4,70.8,99.3,-40.2,-179.7,0,0,732,0,11,0,
0.4100,205.8,-307.2,-26.7,72.0,107.1,-31.2,-143.7,0,0,738,0,12,0,
0.4133,195.9,-302.7,-4.8,80.7,111.6,-22.8,-171.3,0,0,744,0,13,0,
0.4167,210.6,-285.9,-4.8,76.2,112.2,-14.1,-161.4,0,0,750,0,14,0,
0.4200,204.6,-285.6,19.5,84.0,108.6,-30.0,-162.3,0,0,756,0,15,0,
0.4233,209.4,-283.5,-8.7,79.2,107.7,-25.2,-157.5,0,0,762,0,16,0,
0.4267,196.8,-287.4,-15.3,74.7,107.4,-33.0,-168.9,0,0,768,0,17,0,
0.4300,204.9,-294.9,-8.1,82.8,111.0,-25.2,-167.7,0,0,774,0,18,0,
0.4333,216.0,-292.2,-1.8,78.9,110.1,-26.4,-175.2,0,0,780,0,19,0,
0.4367,202.2,-312.3,-2.1,81.6,106.2,-32.7,-184.5,0,0,786,0,20,0,
0.4400,204.3,-315.9,-6.3,75.0,105.6,-33.9,-188.4,0,0,792,0,21,0,
0.4433,203.7,-321.0,-22.8,69.9,105.0,-33.0,-183.9,0,0,798,0,22,0,
0.4467,206.7,-316.8,-9.0,74.7,107.7,-34.5,-186.0,0,0,804,0,23,0,
0.4500,200.1,-304.2,15.0,79.8,112.5,-29.7,-168.6,0,0,810,0,24,0,
0.4533,196.8,-322.2,-30.3,75.0,115.8,-28.2,-189.3,0,0,816,0,25,0,
0.4567,188.4,-332.1,30.3,94.5,109.2,-43.5,-188.4,0,0,822,0,26,0,
0.4600,209.4,-307.5,-29.1,79.5,114.0,-26.4,-173.1,0,0,828,0,27,0,
0.4633,216.0,-303.3,-17.7,83.7,115.2,-24.0,-149.7,0,0,834,0,28,0,
0.4667,217.2,-301.2,6.6,92.1,119.4,-25.2,-180.9,0,0,840,0,29,0,
0.4700,214.5,-302.1,-0.6,90.9,120.0,-15.9,-161.4,0,0,846,0,30,0,
0.4733,212.1,-288.9,-9.3,80.7,116.4,-25.5,-173.4,0,0,852,0,31,0,
0.4767,204.6,-315.3,1.2,81.3,110.4,-42.0,-192.0,0,0,858,0,32,0,
0.4800,206.1,-303.0,-11.7,85.8,113.7,-34.5,-183.0,0,0,864,0,33,0,
0.4833,210.0,-314.7,-5.1,88.2,117.9,-31.8,-178.2,0,0,870,0,34,0,
0.4867,205.2,-309.0,-10.2,82.8,119.7,-18.6,-175.5,0,0,876,0,35,0,
0.4900,206.1,-309.3,-8.4,78.3,117.9,-22.5,-174.0,0,0,882,0,36,0,
0.4933,187.2,-327.3,-15.9,78.9,105.9,-49.5,-187.2,0,0,888,0,37,0,
0.4967,196.5,-321.3,-23.4,80.7,101.7,-50.7,-191.7,0,0,894,0,38,0,
0.5000,195.0,-329.1,-13.8,85.8,102.3,-51.9,-195.6,0,0,900,0,39,0,
0.5033,185.7,-330.9,-24.3,84.0,102.3,-55.8,-202.2,0,0,906,0,40,0,
0.5067,189.6,-338.7,-20.1,87.0,103.8,-54.0,-197.4,0,0,912,0,41,0,
0.5100,197.7,-318.6,3.0,87.6,111.6,-30.9,-189.0,0,0,918,0,42,0,
0.5133,198.0,-319.2,13.2,90.6,108.0,-53.7,-196.8,0,0,924,0,43,0,
0.5167,197.7,-326.4,-36.6,83.1,105.6,-45.3,-188.1,0,0,930,0,44,0,
0.5200,189.9,-324.9,2.4,84.0,101.1,-46.8,-193.2,0,0,936,0,45,0,
0.5233,203.1,-333.3,-33.9,73.5,103.8,-46.8,-194.1,0,0,942,0,46,0,
0.5267,201.6,-321.0,-15.6,77.1,108.0,-42.6,-175.8,0,0,948,0,47,0,
0.5300,194.7,-311.1,-21.6,77.7,103.5,-47.7,-184.5,0,0,954,0,48,0,
0.5333,196.2,-314.7,-4.2,85.8,105.0,-42.6,-196.2,0,0,960,0,49,0,
0.5367,200.7,-307.8,-10.8,89.1,103.8,-39.0,-191.7,0,0,966,0,50,0,
0.5400,206.1,-306.0,-0.9,87.6,105.0,-36.9,-186.9,0,0,972,0,51,0,
0.5433,199.8,-291.3,-0.9,81.9,86.7,-60.9,-190.2,0,0,978,0,52,0,
0.5467,199.2,-299.7,18.6,83.7,92.4,-46.2,-190.2,0,0,984,0,53,0,
0.5500,204.0,-286.2,-6.0,89.7,98.4,-45.9,-185.1,0,0,990,0,54,0,
0.5533,202.5,-285.9,-3.0,83.7,101.4,-23.7,-179.7,0,0,996,0,55,0,
0.5567,198.0,-272.1,6.6,87.9,98.4,-49.8,-178.8,0,0,1002,0,56,0,
0.5600,192.9,-285.0,10.5,87.6,95.7,-50.1,-184.5,0,0,1008,0,57,0,
0.5633,186.3,-266.4,-9.3,83.7,99.9,-42.3,-177.3,0,0,1014,0,58,0,
0.5667,203.4,-275.1,16.5,86.4,96.6,-39.9,-156.9,0,0,1020,0,59,0,
0.5700,210.0,-259.2,8.4,86.4,101.7,-36.3,-167.1,0,0,1026,0,60,0,
0.5733,197.4,-268.5,20.7,91.5,95.4,-44.1,-182.4,0,0,1032,0,61,0,
0.5767,186.9,-255.6,11.1,74.4,93.9,-46.8,-180.6,0,0,1038,0,62,0,
0.5800,177.6,-293.1,8.4,83.4,89.7,-52.2,-182.4,0,0,1044,0,63,0,
0.5833,203.4,-268.5,-10.8,73.2,96.9,-42.0,-155.4,0,0,1050,0,64,0,
0.5867,196.2,-263.4,1.8,78.6,99.0,-45.6,-190.5,0,0,1056,0,65,0,
0.5900,202.5,-259.2,-9.9,72.3,102.3,-41.1,-174.9,0,0,1062,0,66,0,
0.5933,188.7,-253.2,-7.2,73.2,107.1,-36.3,-183.0,0,0,1068,0,67,0,
0.5967,192.6,-249.0,7.8,75.6,100.2,-57.3,-177.6,0,0,1074,0,68,0,
0.6000,193.8,-249.9,7.5,82.2,105.3,-44.4,-177.3,0,0,1080,0,69,0,
0.6033,198.3,-246.3,2.4,83.4,100.8,-46.5,-172.5,0,0,1086,0,70,0,
0.6067,186.6,-228.9,38.1,90.9,98.4,-51.9,-177.0,0,0,1092,0,71,0,
0.6100,189.0,-258.3,-20.1,79.8,99.9,-46.5,-174.3,0,0,1098,0,72,0,
0.6133,187.2,-243.9,-3.9,86.4,101.4,-50.7,-166.2,0,0,1104,0,73,0,
0.6167,200.7,-241.5,0.9,90.0,104.1,-37.5,-155.1,0,0,1110,0,74,0,
0.6200,195.6,-243.9,30.6,97.2,107.1,-42.3,-156.3,0,0,1116,0,75,0,
0.6233,188.7,-234.6,-14.4,78.6,114.0,-26.1,-159.3,0,0,1122,0,76,0,
0.6267,185.4,-255.3,-0.6,85.2,101.1,-43.2,-183.0,0,0,1128,0,77,0,
0.6300,202.5,-248.1,1.2,85.2,104.7,-54.3,-164.7,0,0,1134,0,78,0,
0.6333,183.0,-253.8,13.8,90.6,99.6,-47.7,-177.9,0,0,1140,0,79,0,
0.6367,193.8,-240.6,0.9,82.5,108.6,-39.0,-165.6,0,0,1146,0,80,0,
0.6400,194.7,-238.2,36.0,95.7,111.3,-35.1,-168.3,0,0,1152,0,81,0,
0.6433,198.6,-241.5,-7.2,91.2,111.6,-36.0,-166.2,0,0,1158,0,82,0,
0.6467,191.7,-233.7,22.5,96.0,113.7,-31.5,-169.8,0,0,1164,0,83,0,
0.6500,200.7,-229.2,7.8,92.1,111.9,-39.3,-160.5,0,0,1170,0,84,0,
0.6533,202.5,-226.8,51.6,104.7,120.0,-29.1,-155.7,0,0,1176,0,85,0,
0.6567,194.4,-240.0,3.9,93.0,112.2,-36.3,-145.8,0,0,1182,0,86,0,
0.6600,198.3,-244.8,-4.8,91.5,109.8,-37.2,-156.3,0,0,1188,0,87,0,
0.6633,201.9,-243.0,-4.8,86.7,111.3,-41.4,-164.7,0,0,1194,0,88,0,
0.6667,193.2,-246.0,4.8,98.1,115.8,-23.4,-141.0,0,0,1200,0,89,0,
0.6700,195.9,-238.8,5.4,96.0,112.8,-35.1,-170.4,0,0,1206,0,90,0,
0.6733,194.4,-246.9,-2.7,88.5,117.0,-27.9,-175.2,0,0,1212,0,91,0,
0.6767,208.5,-241.8,1.2,87.9,111.0,-38.7,-168.0,0,0,1218,0,92,0,
0.6800,202.2,-234.9,6.9,86.4,118.2,-29.1,-160.2,0,0,1224,0,93,0,
0.6833,190.8,-243.6,4.5,86.7,111.3,-33.3,-162.3,0,0,1230,0,94,0,
0.6867,190.5,-238.2,4.5,88.5,110.7,-38.1,-168.0,0,0,1236,0,95,0,
0.6900,189.0,-248.1,11.1,81.3,105.6,-29.1,-170.1,0,0,1242,0,96,0,
0.6933,195.3,-225.3,11.1,93.3,105.3,-29.4,-157.5,0,0,1248,0,97,0,
0.6967,197.4,-242.1,-3.6,92.1,107.1,-46.5,-162.0,0,0,1254,0,98,0,
0.7000,194.1,-224.1,63.3,91.8,113.4,-24.3,-153.6,0,0,1260,0,99,0,
0.7033,195.3,-239.4,3.3,87.9,104.1,-46.2,-160.8,0,0,1266,0,100,0,
0.7067,189.0,-236.7,-17.1,79.5,107.7,-30.3,-136.8,0,0,1272,0,101,0,
0.7100,192.3,-223.8,3.6,85.8,117.3,-22.2,-132.0,0,0,1278,0,102,0,
0.7133,210.3,-226.2,11.4,85.8,118.2,-27.9,-162.3,0,0,1284,0,103,0,
0.7167,199.2,-237.9,-0.3,85.2,112.2,-33.3,-154.8,0,0,1290,0,104,0,
0.7200,191.7,-234.6,-0.3,77.4,111.3,-29.7,-165.9,0,0,1296,0,105,0,
0.7233,199.2,-225.9,-0.6,73.5,111.9,-29.4,-167.1,0,0,1302,0,106,0,
0.7267,188.4,-232.5,9.0,83.1,104.4,-36.9,-170.1,0,0,1308,0,107,0,
0.7300,186.9,-243.0,-5.7,76.5,102.0,-37.2,-167.4,0,0,1314,0,108,0,
0.7333,200.4,-231.3,9.6,76.8,109.5,-30.3,-167.1,0,0,1320,0,109,0,
0.7367,182.4,-246.0,-0.6,67.8,103.8,-42.0,-184.5,0,0,1326,0,110,0,
0.7400,183.3,-249.9,0.0,67.8,98.4,-45.6,-176.1,0,0,1332,0,111,0,
0.7433,193.8,-231.3,-2.4,77.1,102.6,-46.5,-162.3,0,0,1338,0,112,0,
0.7467,196.5,-222.0,36.0,84.0,102.0,-47.1,-168.9,0,0,1344,0,113,0,
0.7500,195.6,-227.1,-17.7,72.9,106.5,-44.1,-162.0,0,0,1350,0,114,0,
0.7533,203.7,-240.0,10.8,77.1,108.0,-41.7,-164.1,0,0,1356,0,115,0,
0.7567,187.5,-242.1,0.3,78.9,109.8,-42.3,-147.3,0,0,1362,0,116,0,
0.7600,194.7,-245.7,1.2,74.4,99.0,-53.7,-188.7,0,0,1368,0,117,0,
0.7633,182.1,-239.4,11.7,81.9,100.2,-31.2,-165.0,0,0,1374,0,118,0,
0.7667,186.9,-260.4,-28.2,74.1,94.8,-62.7,-181.5,0,0,1380,0,119,0,
0.7700,190.2,-239.4,-4.2,76.2,96.9,-55.2,-193.8,0,0,1386,0,120,0,
0.7733,180.3,-255.3,3.6,74.4,98.4,-55.5,-198.0,0,0,1392,0,121,0,
0.7767,188.4,-252.0,-12.9,71.1,101.7,-48.6,-189.0,0,0,1398,0,122,0,
0.7800,190.2,-252.6,-16.2,72.6,103.5,-49.8,-188.7,0,0,1404,0,123,0,
0.7833,186.6,-244.2,-4.5,84.9,101.4,-49.8,-186.6,0,0,1410,0,124,0,
0.7867,186.3,-249.0,-15.6,72.9,97.2,-57.9,-190.2,0,0,1416,0,125,0,
0.7900,191.4,-250.2,-10.5,71.4,99.0,-46.5,-189.3,0,0,1422,0,126,0,
0.7933,187.8,-251.4,-1.2,70.2,84.9,-62.4,-190.8,0,0,1428,0,127,0,
0.7967,169.2,-247.8,-6.3,78.3,85.2,-63.6,-182.7,0,0,1434,0,128,0,
0.8000,174.9,-245.1,9.9,76.5,89.7,-61.8,-189.3,0,0,1440,0,129,0,
0.8033,173.4,-245.1,-26.1,67.8,96.0,-51.0,-179.1,0,0,1446,0,130,0,
0.8067,178.2,-247.2,-6.6,80.4,98.4,-52.5,-188.7,0,0,1452,0,131,0,
0.8100,188.1,-247.2,14.1,89.1,101.4,-40.2,-172.8,0,0,1458,0,132,0,
0.8133,195.0,-228.9,-0.3,84.6,106.8,-38.1,-160.2,0,0,1464,0,133,0,
0.8167,206.4,-249.0,-3.0,87.9,105.6,-37.5,-170.4,0,0,1470,0,134,0,
0.8200,175.5,-228.9,21.0,91.2,97.8,-53.1,-183.3,0,0,1476,0,135,0,
0.8233,195.9,-253.5,-21.9,85.5,98.7,-47.7,-158.1,0,0,1482,0,136,0,
0.8267,190.2,-234.6,20.1,84.9,103.8,-41.7,-176.4,0,0,1488,0,137,0,
0.8300,208.5,-236.1,-9.6,82.2,110.4,-34.2,-171.6,0,0,1494,0,138,0,
0.8333,196.8,-253.5,-4.8,80.7,108.6,-23.7,-179.7,0,0,1500,0,139,0,
0.8367,200.7,-246.6,14.7,91.2,104.1,-51.6,-173.4,0,0,1506,0,140,0,
0.8400,201.0,-249.3,11.7,88.8,105.9,-38.1,-175.2,0,0,1512,0,141,0,
0.8433,193.8,-234.3,-20.7,83.1,101.1,-52.5,-171.9,0,0,1518,0,142,0,
0.8467,198.3,-232.8,2.1,87.0,107.1,-39.3,-164.7,0,0,1524,0,143,0,
0.8500,205.5,-228.9,15.3,86.4,108.3,-37.2,-169.2,0,0,1530,0,144,0,
0.8533,206.1,-236.1,9.6,84.9,108.3,-30.9,-165.6,0,0,1536,0,145,0,
0.8567,199.2,-242.4,-0.6,86.7,109.5,-32.1,-183.0,0,0,1542,0,146,0,
0.8600,201.0,-245.7,-7.2,83.7,106.5,-46.8,-169.8,0,0,1548,0,147,0,
0.8633,203.7,-230.7,29.1,96.6,112.5,-42.3,-167.1,0,0,1554,0,148,0,
0.8667,221.4,-237.6,-9.0,81.9,110.4,-32.4,-158.4,0,0,1560,0,149,0,
0.8700,205.8,-240.3,15.0,90.6,103.5,-46.8,-175.8,0,0,1566,0,150,0,
0.8733,198.6,-246.0,-2.7,77.4,104.1,-40.5,-175.2,0,0,1572,0,151,0,
0.8767,193.8,-239.7,18.6,81.0,99.6,-49.5,-156.6,0,0,1578,0,152,0,
0.8800,211.2,-241.5,-6.0,72.6,107.7,-44.7,-177.6,0,0,1584,0,153,0,
0.8833,208.5,-239.7,18.0,83.1,111.9,-39.6,-163.8,0,0,1590,0,154,0,
0.8867,206.4,-247.5,-17.1,85.2,110.4,-41.4,-165.6,0,0,1596,0,155,0,
0.8900,188.7,-232.5,18.3,91.8,115.8,-12.0,-160.2,0,0,1602,0,156,0,
0.8933,212.1,-251.7,22.5,85.8,110.1,-45.6,-167.1,0,0,1608,0,157,0,
0.8967,214.2,-233.1,-0.3,81.0,123.0,-32.4,-150.3,0,0,1614,0,158,0,
0.9000,223.5,-231.3,7.5,90.0,123.3,-27.0,-152.4,0,0,1620,0,159,0,
0.9033,210.3,-238.2,6.9,87.6,113.4,-34.8,-159.0,0,0,1626,0,160,0,
0.9067,216.6,-240.0,44.1,93.3,118.2,-30.9,-155.7,0,0,1632,0,161,0,
0.9100,205.2,-240.6,-9.9,83.4,120.3,-20.4,-152.4,0,0,1638,0,162,0,
0.9133,207.6,-227.4,8.7,87.6,107.1,-39.0,-162.3,0,0,1644,0,163,0,
0.9167,207.6,-238.8,16.2,96.3,102.3,-28.8,-169.2,0,0,1650,0,164,0,
0.9200,217.5,-238.5,1.8,81.9,104.4,-40.8,-166.5,0,0,1656,0,165,0,
0.9233,198.3,-235.8,13.8,87.0,105.0,-37.8,-163.2,0,0,1662,0,166,0,
0.9267,217.5,-231.6,-1.8,79.5,100.8,-36.0,-165.6,0,0,1668,0,167,0,
0.9300,215.4,-231.9,13.8,84.0,108.6,-26.7,-150.3,0,0,1674,0,168,0,
0.9333,218.1,-243.6,2.7,85.5,106.2,-33.0,-162.9,0,0,1680,0,169,0,
0.9367,205.5,-246.3,-5.4,76.5,107.1,-26.1,-139.8,0,0,1686,0,170,0,
0.9400,196.8,-249.6,7.5,75.3,103.8,-28.8,-168.9,0,0,1692,0,171,0,
0.9433,205.5,-251.4,27.9,84.3,103.2,-36.0,-170.7,0,0,1698,0,172,0,
0.9467,213.6,-246.9,-9.9,81.0,104.4,-40.2,-168.0,0,0,1704,0,173,0,
0.9500,202.2,-249.6,1.2,82.2,108.3,-21.9,-160.5,0,0,1710,0,174,0,
0.9533,198.0,-237.3,12.6,85.8,106.2,-30.9,-168.9,0,0,1716,0,175,0,
0.9567,205.2,-242.1,1.2,90.0,99.6,-56.1,-179.4,0,0,1722,0,176,0,
0.9600,209.4,-259.5,6.0,90.0,101.7,-39.9,-166.5,0,0,1728,0,177,0,
0.9633,214.5,-236.1,43.5,80.1,100.8,-39.9,-168.0,0,0,1734,0,178,0,
0.9667,215.4,-252.9,-11.1,84.0,106.8,-33.9,-171.6,0,0,1740,0,179,0,
0.9700,204.0,-237.9,4.2,80.1,105.3,-27.6,-168.0,0,0,1746,0,180,0,
0.9733,197.1,-255.3,4.2,85.2,93.0,-57.9,-190.2,0,0,1752,0,181,0,
0.9767,203.1,-240.6,6.9,85.2,105.3,-33.3,-172.5,0,0,1758,0,182,0,
0.9800,203.1,-245.4,-8.4,82.8,104.1,-43.5,-182.1,0,0,1764,0,183,0,
0.9833,195.3,-251.4,3.6,91.5,102.0,-42.0,-175.2,0,0,1770,0,184,0,
0.9867,207.3,-252.6,13.8,89.7,106.2,-36.6,-166.8,0,0,1776,0,185,0,
0.9900,217.5,-243.0,-1.2,90.3,110.7,-30.0,-151.2,0,0,1782,0,186,0,
0.9933,221.1,-245.7,-4.5,81.9,108.6,-41.7,-172.8,0,0,1788,0,187,0,
0.9967,213.6,-228.3,38.7,90.9,110.4,-30.0,-150.0,0,0,1794,0,188,0,
1.0000,216.9,-248.7,3.0,96.6,113.7,-36.3,-172.8,0,0,1800,0,189,0,
1.0033,228.9,-228.9,5.7,92.7,113.7,-31.2,-157.8,0,0,1806,0,190,0,
1.0067,231.3,-239.1,2.4,86.4,121.8,-19.5,-159.6,0,0,1812,0,191,0,
1.0100,219.9,-238.5,24.3,90.0,122.7,-11.4,-162.9,0,0,1818,0,192,0,
1.0133,231.3,-237.9,-3.3,88.2,116.4,-29.1,-157.8,0,0,1824,0,193,0,
1.0167,222.3,-240.0,21.9,95.4,116.1,-29.4,-156.3,0,0,1830,0,194,0,
1.0200,213.3,-249.0,6.0,85.8,113.1,-30.6,-168.6,0,0,1836,0,195,0,
1.0233,216.6,-249.6,8.1,95.1,115.2,-32.7,-169.5,0,0,1842,0,196,0,
1.0267,220.5,-251.7,3.9,85.8,119.1,-21.9,-162.0,0,0,1848,0,197,0,
1.0300,210.9,-263.7,21.3,87.6,118.8,-25.5,-164.7,0,0,1854,0,198,0,
1.0333,208.5,-257.7,27.9,87.6,114.0,-42.0,-171.9,0,0,1860,0,199,0,
1.0367,221.7,-264.3,-18.9,84.9,118.2,-30.6,-178.2,0,0,1866,0,200,0,
1.0400,212.4,-248.7,-1.2,86.7,116.7,-18.6,-159.0,0,0,1872,0,201,0,
1.0433,225.0,-240.9,8.1,92.1,125.4,-14.1,-147.3,0,0,1878,0,202,0,
1.0467,232.5,-233.7,6.3,97.5,123.6,-25.5,-176.4,0,0,1884,0,203,0,
1.0500,224.4,-243.0,11.4,99.0,122.1,-27.0,-168.9,0,0,1890,0,204,0,
1.0533,222.0,-234.3,15.0,97.5,124.5,-22.5,-166.2,0,0,1896,0,205,0,
1.0567,226.2,-237.0,14.1,88.8,125.7,-19.2,-159.3,0,0,1902,0,206,0,
1.0600,224.1,-245.1,7.8,87.0,121.5,-26.4,-163.2,0,0,1908,0,207,0,
1.0633,211.8,-255.9,3.3,82.8,117.0,-28.2,-167.4,0,0,1914,0,208,0,
1.0667,206.4,-248.7,3.0,83.4,117.3,-21.3,-163.8,0,0,1920,0,209,0,
1.0700,208.2,-252.0,-12.6,85.2,110.4,-28.2,-175.8,0,0,1926,0,210,0,
1.0733,195.3,-251.4,14.7,87.6,114.0,-26.4,-174.0,0,0,1932,0,211,0,
1.0767,200.7,-254.1,-4.2,86.7,111.0,-35.4,-182.1,0,0,1938,0,212,0,
1.0800,208.8,-236.1,1.2,89.7,123.3,3.9,-163.5,0,0,1944,0,213,0,
1.0833,221.4,-249.6,24.6,92.4,120.0,-23.4,-162.0,0,0,1950,0,214,0,
1.0867,215.1,-252.9,-12.6,90.0,117.9,-25.8,-162.9,0,0,1956,0,215,0,
1.0900,208.5,-261.0,4.2,93.6,119.4,-29.4,-172.2,0,0,1962,0,216,0,
1.0933,210.6,-249.0,15.3,100.2,125.7,-10.2,-161.4,0,0,1968,0,217,0,
1.0967,210.3,-249.9,45.9,107.1,121.5,-21.3,-166.2,0,0,1974,0,218,0,
1.1000,212.1,-237.3,10.5,100.8,118.8,-26.4,-161.4,0,0,1980,0,219,0,
1.1033,208.8,-258.0,21.6,100.5,114.3,-28.5,-146.1,0,0,1986,0,220,0,
1.1067,214.2,-245.7,19.2,101.4,116.4,-19.5,-164.1,0,0,1992,0,221,0,
1.1100,217.8,-243.0,12.3,90.9,117.6,-13.8,-164.4,0,0,1998,0,222,0,
1.1133,207.3,-249.9,20.4,94.8,113.4,-27.0,-170.1,0,0,2004,0,223,0,
1.1167,206.1,-246.3,24.3,99.6,117.6,-29.1,-168.3,0,0,2010,0,224,0,
1.1200,215.1,-235.2,9.9,96.6,124.5,-15.3,-154.5,0,0,2016,0,225,0,
1.1233,207.6,-230.1,30.0,93.3,115.8,-22.2,-158.7,0,0,2022,0,226,0,
1.1267,212.1,-226.8,30.0,97.8,119.7,-17.4,-164.7,0,0,2028,0,227,0,
1.1300,219.9,-235.8,40.2,103.2,121.5,-14.1,-159.6,0,0,2034,0,228,0,
1.1333,216.6,-244.5,-6.6,95.4,123.6,-13.2,-156.0,0,0,2040,0,229,0,
1.1367,213.3,-232.5,12.3,91.5,122.1,-17.7,-164.7,0,0,2046,0,230,0,
1.1400,218.7,-244.8,13.8,97.5,119.1,-17.1,-161.7,0,0,2052,0,231,0,
1.1433,207.3,-244.2,17.7,94.2,113.4,-25.5,-167.7,0,0,2058,0,232,0,
1.1467,202.5,-269.4,7.8,97.2,114.3,-31.5,-177.6,0,0,2064,0,233,0,
1.1500,214.8,-253.8,17.4,98.7,120.0,-19.8,-158.4,0,0,2070,0,234,0,
1.1533,212.4,-254.1,14.4,99.3,118.5,-15.6,-164.1,0,0,2076,0,235,0,
1.1567,219.9,-241.5,27.3,100.5,121.5,-18.0,-155.4,0,0,2082,0,236,0,
1.1600,216.9,-246.3,18.6,106.5,125.7,4.2,-166.2,0,0,2088,0,237,0,
1.1633,219.0,-238.2,15.0,98.1,124.2,-16.5,-163.5,0,0,2094,0,238,0,
1.1667,220.8,-229.2,16.2,99.3,120.3,-23.4,-159.6,0,0,2100,0,239,0,
1.1700,219.9,-248.4,10.5,96.3,119.4,-17.7,-133.2,0,0,2106,0,240,0,
1.1733,222.0,-231.0,18.0,101.1,127.2,-0.3,-135.3,0,0,2112,0,241,0,
1.1767,228.6,-232.2,39.9,100.2,126.3,-14.4,-153.9,0,0,2118,0,242,0,
1.1800,221.1,-244.2,33.3,105.9,126.0,-15.6,-163.8,0,0,2124,0,243,0,
1.1833,224.1,-238.5,-27.3,93.0,123.9,-13.5,-159.6,0,0,2130,0,244,0,
1.1867,205.2,-252.3,19.2,99.6,125.1,-16.5,-165.9,0,0,2136,0,245,0,
1.1900,207.9,-245.4,17.7,93.9,120.9,-20.1,-166.5,0,0,2142,0,246,0,
1.1933,204.0,-268.2,-15.6,84.9,116.7,-31.2,-177.0,0,0,2148,0,247,0,
1.1967,204.3,-264.3,1.5,87.9,115.5,-31.8,-180.6,0,0,2154,0,248,0,
1.2000,201.9,-259.8,-2.1,89.7,116.1,-27.0,-172.2,0,0,2160,0,249,0,
1.2033,204.0,-259.2,2.7,89.7,113.1,-33.6,-184.2,0,0,2166,0,250,0,
1.2067,198.0,-261.3,-11.4,88.8,116.1,-26.7,-176.1,0,0,2172,0,251,0,
1.2100,207.6,-254.7,2.4,88.2,113.1,-27.9,-171.6,0,0,2178,0,252,0,
1.2133,198.0,-260.4,-0.9,85.8,110.7,-33.9,-173.4,0,0,2184,0,253,0,
1.2167,196.5,-253.5,9.9,91.2,108.9,-34.5,-169.2,0,0,2190,0,254,0,
1.2200,196.5,-261.6,-1.8,84.6,112.2,-35.7,-171.9,0,0,2196,0,255,0,
1.2233,195.6,-270.9,-18.0,82.8,112.8,-28.5,-184.2,0,0,2202,0,0,0,
1.2267,207.9,-248.1,13.8,87.3,122.1,-16.2,-159.3,0,0,2208,0,1,0,
1.2300,210.3,-244.2,25.8,84.9,118.5,-21.0,-150.6,0,0,2214,0,2,0,
1.2333,207.0,-265.8,-18.6,87.0,116.7,-9.6,-146.4,0,0,2220,0,3,0,
1.2367,204.3,-262.8,-5.4,87.0,123.0,-29.4,-163.2,0,0,2226,0,4,0,
1.2400,201.3,-268.2,-3.6,87.6,110.7,-33.9,-177.9,0,0,2232,0,5,0,
1.2433,201.9,-257.4,7.5,91.5,114.9,-30.9,-169.5,0,0,2238,0,6,0,
1.2467,207.3,-243.0,15.0,97.8,125.4,-18.3,-156.9,0,0,2244,0,7,0,
1.2500,200.4,-265.2,-28.8,95.1,116.7,-19.8,-161.4,0,0,2250,0,8,0,
1.2533,204.6,-250.2,1.2,92.7,117.9,-20.4,-163.8,0,0,2256,0,9,0,
1.2567,200.7,-255.0,-9.3,83.1,117.6,-25.5,-167.7,0,0,2262,0,10,0,
1.2600,196.5,-261.0,-13.8,75.3,112.5,-22.8,-172.8,0,0,2268,0,11,0,
1.2633,191.4,-276.3,-18.9,81.3,107.1,-33.3,-182.4,0,0,2274,0,12,0,
1.2667,181.8,-275.1,-7.5,95.7,106.5,-50.1,-178.8,0,0,2280,0,13,0,
1.2700,184.8,-270.0,15.3,93.9,114.0,-41.7,-187.2,0,0,2286,0,14,0,
1.2733,201.3,-241.8,10.5,97.8,121.2,-19.5,-158.7,0,0,2292,0,15,0,
1.2767,222.9,-264.6,3.9,94.2,133.5,-10.8,-156.3,0,0,2298,0,16,0,
1.2800,214.8,-255.0,-9.9,93.0,129.0,-13.2,-157.2,0,0,2304,0,17,0,
1.2833,211.8,-260.4,-3.0,93.3,123.0,-21.0,-162.6,0,0,2310,0,18,0,
1.2867,212.7,-271.2,-18.3,94.5,123.3,-16.8,-169.5,0,0,2316,0,19,0,
1.2900,210.3,-260.4,-4.2,97.2,122.4,-16.8,-166.2,0,0,2322,0,20,0,
1.2933,203.4,-261.6,-10.2,93.6,125.1,-17.4,-166.5,0,0,2328,0,21,0,
1.2967,204.9,-263.4,-1.8,93.3,123.0,-17.7,-160.8,0,0,2334,0,22,0,
1.3000,205.2,-260.1,0.9,91.8,124.8,-17.7,-158.1,0,0,2340,0,23,0,
1.3033,197.7,-265.5,-19.2,97.8,120.0,-21.0,-167.4,0,0,2346,0,24,0,
1.3067,184.8,-274.5,-5.4,98.1,114.0,-33.0,-169.8,0,0,2352,0,25,0,
1.3100,208.8,-258.9,-2.7,92.1,116.4,-25.8,-165.0,0,0,2358,0,26,0,
1.3133,200.7,-260.1,15.6,105.0,120.6,-21.9,-163.8,0,0,2364,0,27,0,
1.3167,209.1,-268.5,-11.1,83.4,122.1,-14.1,-167.4,0,0,2370,0,28,0,
1.3200,187.5,-265.5,15.0,90.3,120.9,-9.6,-186.0,0,0,2376,0,29,0,
1.3233,195.6,-273.3,-27.6,81.6,120.6,-45.0,-175.8,0,0,2382,0,30,0,
1.3267,191.1,-270.9,-11.1,87.0,113.7,-24.9,-186.0,0,0,2388,0,31,0,
1.3300,200.1,-266.1,-1.5,90.3,115.2,-30.6,-180.0,0,0,2394,0,32,0,
1.3333,190.2,-268.8,-7.5,88.5,117.0,-30.6,-179.4,0,0,2400,0,33,0,
1.3367,195.9,-281.4,-26.7,84.6,116.1,-26.7,-175.8,0,0,2406,0,34,0,
1.3400,193.8,-273.6,-23.1,90.0,120.9,-16.5,-181.5,0,0,2412,0,35,0,
1.3433,196.5,-268.2,27.6,97.2,123.6,-29.1,-180.3,0,0,2418,0,36,0,
1.3467,191.4,-273.9,-29.4,90.6,123.9,-19.8,-169.8,0,0,2424,0,37,0,
1.3500,193.2,-278.7,-7.5,93.9,119.4,-30.9,-199.2,0,0,2430,0,38,0,
1.3533,185.7,-276.0,-14.1,91.2,119.7,-28.2,-176.4,0,0,2436,0,39,0,
1.3567,192.6,-273.3,-6.0,88.2,117.3,-27.3,-181.5,0,0,2442,0,40,0,
1.3600,193.2,-271.5,-1.5,93.6,123.6,-21.9,-173.1,0,0,2448,0,41,0,
1.3633,186.3,-270.3,-7.2,91.8,120.3,-29.1,-177.0,0,0,2454,0,42,0,
1.3667,191.1,-273.6,-3.3,94.2,124.8,-21.3,-174.0,0,0,2460,0,43,0,
1.3700,186.3,-275.4,-8.1,103.2,124.2,-31.2,-181.2,0,0,2466,0,44,0,
1.3733,201.6,-259.2,1.8,103.8,124.8,-15.6,-171.9,0,0,2472,0,45,0,
1.3767,204.9,-246.3,5.7,102.3,130.8,6.9,-160.5,0,0,2478,0,46,0,
1.3800,219.9,-239.4,7.8,99.9,134.1,-22.2,-161.1,0,0,2484,0,47,0,
1.3833,217.8,-261.9,-8.4,101.7,136.2,-11.1,-160.8,0,0,2490,0,48,0,
1.3867,212.1,-256.5,5.1,104.7,128.4,-20.1,-173.1,0,0,2496,0,49,0,
1.3900,198.3,-270.6,7.8,97.8,123.3,-23.1,-178.5,0,0,2502,0,50,0,
1.3933,204.9,-271.5,-24.0,92.4,118.8,-27.6,-177.9,0,0,2508,0,51,0,
1.3967,201.6,-271.2,-3.6,95.1,123.9,-24.3,-177.6,0,0,2514,0,52,0,
1.4000,209.4,-277.8,-11.7,89.4,120.0,-30.9,-172.2,0,0,2520,0,53,0,
1.4033,211.2,-266.7,5.1,93.9,132.6,-11.1,-153.9,0,0,2526,0,54,0,
1.4067,219.6,-267.9,-9.3,95.1,126.3,-19.8,-177.0,0,0,2532,0,55,0,
1.4100,214.5,-268.8,38.7,92.1,125.4,-18.6,-161.4,0,0,2538,0,56,0,
1.4133,217.2,-261.3,-27.6,94.5,126.0,-21.0,-164.7,0,0,2544,0,57,0,
1.4167,216.3,-265.5,-0.9,100.2,124.5,-13.2,-173.7,0,0,2550,0,58,0,
1.4200,204.0,-285.9,-2.1,101.7,119.7,-29.1,-184.5,0,0,2556,0,59,0,
1.4233,208.5,-270.3,-20.4,84.9,111.9,-39.9,-173.7,0,0,2562,0,60,0,
1.4267,210.6,-287.1,-31.2,89.7,114.3,-35.4,-173.4,0,0,2568,0,61,0,
1.4300,210.3,-285.0,-15.6,91.8,115.5,-35.4,-175.8,0,0,2574,0,62,0,
1.4333,201.0,-282.6,-19.5,89.7,115.2,-28.5,-182.7,0,0,2580,0,63,0,
1.4367,185.1,-299.1,-10.5,85.8,113.7,-53.4,-206.1,0,0,2586,0,64,0,
1.4400,198.9,-290.1,-20.4,89.4,117.9,-42.9,-193.8,0,0,2592,0,65,0,
1.4433,210.3,-293.7,-24.9,89.1,120.6,-37.5,-162.3,0,0,2598,0,66,0,
1.4467,230.1,-277.8,-3.0,104.1,122.7,-19.2,-181.8,0,0,2604,0,67,0,
1.4500,225.0,-277.2,-9.3,101.4,128.1,-22.8,-163.8,0,0,2610,0,68,0,
1.4533,224.1,-280.2,-14.7,102.3,123.6,-13.8,-191.1,0,0,2616,0,69,0,
1.4567,221.7,-270.3,0.3,99.3,120.6,-38.7,-174.3,0,0,2622,0,70,0,
1.4600,213.0,-286.8,-14.4,96.3,126.3,-31.2,-177.0,0,0,2628,0,71,0,
1.4633,204.3,-288.9,-30.0,93.6,129.0,-34.5,-183.9,0,0,2634,0,72,0,
1.4667,196.5,-297.3,20.1,99.0,125.7,-29.1,-183.0,0,0,2640,0,73,0,
1.4700,215.7,-279.9,-21.6,91.5,120.0,-31.2,-179.4,0,0,2646,0,74,0,
1.4733,202.5,-278.4,-6.3,92.7,121.8,-26.1,-187.8,0,0,2652,0,75,0,
1.4767,216.9,-273.0,-25.2,99.0,127.2,-27.3,-181.8,0,0,2658,0,76,0,
1.4800,227.7,-260.4,3.6,112.5,126.6,-23.7,-175.2,0,0,2664,0,77,0,
1.4833,236.4,-270.0,-14.7,104.4,132.3,-20.4,-170.7,0,0,2670,0,78,0,
1.4867,224.4,-276.0,2.1,103.8,125.1,-26.4,-170.7,0,0,2676,0,79,0,
1.4900,230.7,-276.9,-15.6,98.1,135.9,-17.7,-178.2,0,0,2682,0,80,0,
1.4933,219.3,-275.4,0.3,101.7,123.9,-24.3,-175.5,0,0,2688,0,81,0,
1.4967,219.0,-276.9,9.9,103.8,126.3,-22.8,-170.7,0,0,2694,0,82,0,
1.5000,208.8,-278.4,-12.6,101.7,122.4,-27.6,-168.6,0,0,2700,0,83,0,
1.5033,222.6,-289.8,-42.3,94.5,124.2,-36.6,-196.5,0,0,2706,0,84,0,
1.5067,209.7,-287.4,-18.0,93.6,115.8,-27.3,-185.1,0,0,2712,0,85,0,
1.5100,214.2,-291.3,-24.0,90.9,123.6,-13.2,-181.2,0,0,2718,0,86,0,
1.5133,209.4,-283.8,-16.8,92.1,105.6,-41.1,-186.3,0,0,2724,0,87,0,
1.5167,218.1,-280.2,-12.3,92.7,112.5,-34.5,-179.1,0,0,2730,0,88,0,
1.5200,210.0,-275.1,-25.5,85.8,114.3,-29.1,-171.6,0,0,2736,0,89,0,
1.5233,202.8,-289.8,-9.6,86.4,106.5,-39.3,-209.7,0,0,2742,0,90,0,
1.5267,205.8,-276.9,-17.4,86.7,116.7,-13.2,-183.3,0,0,2748,0,91,0,
1.5300,225.0,-263.4,-6.6,98.1,108.6,-38.1,-172.5,0,0,2754,0,92,0,
1.5333,217.5,-253.2,-24.9,95.4,110.1,-28.8,-160.8,0,0,2760,0,93,0,
1.5367,207.6,-262.2,-8.1,107.1,104.1,-34.2,-166.2,0,0,2766,0,94,0,
1.5400,217.8,-256.5,-21.0,89.4,109.2,-33.0,-174.6,0,0,2772,0,95,0,
1.5433,210.6,-249.3,-1.5,94.2,102.9,-35.4,-170.4,0,0,2778,0,96,0,
1.5467,216.6,-250.8,-24.0,91.5,110.4,-27.0,-155.1,0,0,2784,0,97,0,
1.5500,216.3,-246.9,-3.9,98.4,106.8,-30.0,-158.1,0,0,2790,0,98,0,
1.5533,214.5,-242.7,-2.1,99.3,106.8,-37.8,-161.4,0,0,2796,0,99,0,
1.5567,208.2,-255.3,-11.7,94.5,101.4,-40.2,-162.0,0,0,2802,0,100,0,
1.5600,207.9,-240.6,-22.5,88.2,105.3,-36.6,-160.2,0,0,2808,0,101,0,
1.5633,206.7,-232.2,2.4,100.5,113.1,-34.8,-151.8,0,0,2814,0,102,0,
1.5667,202.2,-222.6,0.9,98.1,114.9,-30.0,-152.7,0,0,2820,0,103,0,
1.5700,192.6,-230.4,-6.9,96.6,105.0,-53.1,-168.3,0,0,2826,0,104,0,
1.5733,193.5,-228.6,6.9,92.1,107.7,-38.1,-160.2,0,0,2832,0,105,0,
1.5767,210.9,-213.6,16.2,98.4,109.2,-34.5,-150.6,0,0,2838,0,106,0,
1.5800,222.0,-198.3,-16.8,92.7,108.3,-36.9,-144.0,0,0,2844,0,107,0,
1.5833,201.0,-232.5,6.3,99.9,105.6,-37.8,-154.2,0,0,2850,0,108,0,
1.5867,200.7,-221.7,-4.2,87.0,107.7,-28.2,-138.6,0,0,2856,0,109,0,
1.5900,215.7,-207.6,-2.4,83.1,119.1,-12.6,-129.6,0,0,2862,0,110,0,
1.5933,231.9,-194.1,10.8,90.0,116.4,-19.8,-143.7,0,0,2868,0,111,0,
1.5967,233.4,-196.8,11.1,98.1,108.6,-19.8,-132.6,0,0,2874,0,112,0,
1.6000,235.2,-197.7,4.8,94.8,113.4,-19.5,-134.7,0,0,2880,0,113,0,
1.6033,234.6,-185.1,52.8,103.5,113.4,-21.6,-137.1,0,0,2886,0,114,0,
1.6067,240.3,-198.0,-11.1,99.6,120.0,-13.8,-124.8,0,0,2892,0,115,0,
1.6100,230.1,-207.6,11.1,100.8,116.4,-5.7,-138.6,0,0,2898,0,116,0,
1.6133,243.9,-199.5,12.6,101.1,117.9,-31.8,-135.6,0,0,2904,0,117,0,
1.6167,231.9,-209.4,7.2,98.1,114.9,-24.0,-136.8,0,0,2910,0,118,0,
1.6200,227.1,-213.9,8.7,95.4,113.1,-28.5,-143.4,0,0,2916,0,119,0,
1.6233,235.5,-220.2,20.7,95.4,121.2,-6.3,-126.3,0,0,2922,0,120,0,
1.6267,248.4,-205.2,-2.4,85.2,120.6,-20.4,-132.0,0,0,2928,0,121,0,
1.6300,248.4,-208.2,9.0,95.1,125.1,-20.7,-124.2,0,0,2934,0,122,0,
1.6333,246.9,-206.1,-3.6,96.0,129.9,-15.9,-123.3,0,0,2940,0,123,0,
1.6367,255.3,-199.8,0.6,105.0,138.6,9.3,-91.8,0,0,2946,0,124,0,
1.6400,249.0,-210.9,41.4,103.8,129.6,-9.0,-136.2,0,0,2952,0,125,0,
1.6433,260.1,-193.8,-7.8,105.0,137.7,-3.3,-110.1,0,0,2958,0,126,0,
1.6467,255.9,-199.5,13.8,108.9,137.1,-5.1,-120.9,0,0,2964,0,127,0,
1.6500,258.3,-192.0,26.4,110.4,140.4,10.2,-89.7,0,0,2970,0,128,0,
1.6533,270.6,-195.9,22.5,115.8,140.1,2.7,-113.1,0,0,2976,0,129,0,
1.6567,277.8,-188.4,14.7,109.2,139.5,-1.2,-109.8,0,0,2982,0,130,0,
1.6600,261.0,-206.7,12.6,111.3,132.3,-11.1,-130.2,0,0,2988,0,131,0,
1.6633,272.7,-195.9,11.1,108.0,140.1,-3.0,-121.2,0,0,2994,0,132,0,
1.6667,279.6,-194.4,30.0,117.6,140.7,4.8,-109.5,0,0,3000,0,133,0,
1.6700,272.7,-194.4,23.7,116.7,143.1,0.6,-112.2,0,0,3006,0,134,0,
1.6733,255.0,-226.5,22.2,110.1,130.2,-13.8,-123.6,0,0,3012,0,135,0,
1.6767,264.0,-225.3,-9.0,103.5,135.3,-6.3,-129.3,0,0,3018,0,136,0,
1.6800,284.1,-213.6,16.8,109.8,139.5,9.0,-127.8,0,0,3024,0,137,0,
1.6833,297.0,-196.5,33.0,114.0,145.2,20.7,-104.4,0,0,3030,0,138,0,
1.6867,300.3,-195.3,24.3,110.4,137.1,-12.3,-114.6,0,0,3036,0,139,0,
1.6900,291.3,-197.7,24.9,114.6,134.1,3.3,-91.8,0,0,3042,0,140,0,
1.6933,287.7,-195.3,29.1,107.4,134.4,-5.7,-125.1,0,0,3048,0,141,0,
1.6967,286.5,-187.5,34.5,105.3,135.0,0.3,-114.0,0,0,3054,0,142,0,
1.7000,287.7,-210.0,24.0,110.7,134.7,-5.1,-118.2,0,0,3060,0,143,0,
1.7033,289.2,-193.5,18.6,109.5,131.4,-9.0,-120.3,0,0,3066,0,144,0,
1.7067,293.4,-205.2,32.4,108.0,127.5,-9.3,-129.3,0,0,3072,0,145,0,
1.7100,290.4,-210.6,9.3,107.4,128.7,-3.9,-119.4,0,0,3078,0,146,0,
1.7133,291.0,-206.1,41.1,111.3,130.5,-9.3,-125.7,0,0,3084,0,147,0,
1.7167,301.8,-209.7,24.6,106.5,132.0,-0.3,-120.6,0,0,3090,0,148,0,
1.7200,305.4,-206.7,-12.3,111.9,134.4,-7.8,-119.7,0,0,3096,0,149,0,
1.7233,291.3,-216.0,17.1,114.0,128.1,-3.9,-129.9,0,0,3102,0,150,0,
1.7267,294.0,-217.8,2.4,114.3,125.7,-16.8,-126.6,0,0,3108,0,151,0,
1.7300,281.1,-212.1,16.2,116.7,129.9,-5.7,-125.1,0,0,3114,0,152,0,
1.7333,280.5,-214.8,16.2,115.8,126.9,-11.7,-128.4,0,0,3120,0,153,0,
1.7367,279.9,-219.0,9.0,105.0,120.6,-12.3,-129.6,0,0,3126,0,154,0,
1.7400,291.3,-203.4,12.0,108.3,124.8,-13.8,-123.0,0,0,3132,0,155,0,
1.7433,293.4,-213.3,19.8,114.9,128.7,12.9,-142.5,0,0,3138,0,156,0,
1.7467,291.6,-208.8,4.5,99.9,120.9,-21.6,-138.0,0,0,3144,0,157,0,
1.7500,291.3,-216.6,11.4,103.2,122.4,-13.5,-148.2,0,0,3150,0,158,0,
1.7533,286.2,-219.3,-10.2,103.8,120.0,-20.4,-147.3,0,0,3156,0,159,0,
1.7567,286.8,-225.6,-3.6,109.2,129.0,-6.6,-147.0,0,0,3162,0,160,0,
1.7600,294.0,-216.3,16.5,110.4,126.3,-22.5,-135.3,0,0,3168,0,161,0,
1.7633,283.5,-216.6,21.3,112.8,124.2,-16.5,-137.4,0,0,3174,0,162,0,
1.7667,290.4,-199.8,10.2,120.6,135.6,-6.6,-132.0,0,0,3180,0,163,0,
1.7700,286.8,-214.2,17.4,126.0,131.1,-11.4,-149.1,0,0,3186,0,164,0,
1.7733,280.2,-224.4,-26.1,104.4,131.1,-13.2,-150.0,0,0,3192,0,165,0,
1.7767,276.3,-226.5,3.0,109.5,130.8,-17.4,-146.1,0,0,3198,0,166,0,
1.7800,277.2,-222.6,6.9,111.9,138.3,-1.5,-136.2,0,0,3204,0,167,0,
1.7833,279.6,-221.7,-5.4,104.7,124.8,-19.8,-136.8,0,0,3210,0,168,0,
1.7867,278.7,-222.9,3.3,103.5,119.7,-20.7,-144.6,0,0,3216,0,169,0,
1.7900,281.7,-225.6,-8.1,99.0,120.0,-18.6,-147.9,0,0,3222,0,170,0,
1.7933,272.7,-234.6,32.1,111.6,120.3,-15.9,-148.5,0,0,3228,0,171,0,
1.7967,293.1,-219.9,-6.0,95.4,128.7,-15.0,-154.8,0,0,3234,0,172,0,
1.8000,288.0,-212.7,8.4,108.0,128.7,-7.2,-136.8,0,0,3240,0,173,0,
1.8033,282.3,-222.3,-14.1,103.5,128.4,-14.1,-143.4,0,0,3246,0,174,0,
1.8067,275.1,-210.0,13.8,106.8,128.4,-12.0,-156.6,0,0,3252,0,175,0,
1.8100,290.1,-224.7,-8.1,110.1,127.8,-8.7,-125.7,0,0,3258,0,176,0,
1.8133,286.8,-205.2,8.1,106.8,134.4,27.3,-140.4,0,0,3264,0,177,0,
1.8167,307.5,-211.8,37.2,120.0,131.7,-27.0,-136.8,0,0,3270,0,178,0,
1.8200,298.8,-219.3,-7.5,112.2,134.7,-2.7,-136.2,0,0,3276,0,179,0,
1.8233,294.3,-227.7,2.1,116.7,132.9,-13.5,-139.5,0,0,3282,0,180,0,
1.8267,291.9,-220.2,5.1,114.6,134.7,-0.9,-140.4,0,0,3288,0,181,0,
1.8300,285.9,-223.5,-12.6,113.7,126.6,-10.8,-148.5,0,0,3294,0,182,0,
1.8333,288.6,-240.6,-11.4,107.1,131.4,-6.6,-144.6,0,0,3300,0,183,0,
1.8367,283.8,-234.0,0.3,110.1,126.9,-10.5,-145.2,0,0,3306,0,184,0,
1.8400,284.7,-219.3,4.8,101.1,133.2,-1.8,-140.4,0,0,3312,0,185,0,
1.8433,285.0,-224.4,5.4,99.9,130.5,-0.3,-140.7,0,0,3318,0,186,0,
1.8467,286.2,-227.4,-0.6,101.4,125.1,-8.7,-144.3,0,0,3324,0,187,0,
1.8500,275.1,-225.3,14.1,106.5,121.5,-19.2,-140.1,0,0,3330,0,188,0,
1.8533,269.7,-247.8,-26.4,94.2,115.2,-24.6,-154.2,0,0,3336,0,189,0,
1.8567,261.3,-246.9,-18.3,93.0,121.8,-16.5,-147.0,0,0,3342,0,190,0,
1.8600,256.8,-243.6,-18.0,91.8,119.7,-22.5,-143.4,0,0,3348,0,191,0,
1.8633,267.3,-240.0,-17.4,88.5,114.9,-32.4,-179.7,0,0,3354,0,192,0,
1.8667,283.8,-238.8,-9.3,94.5,119.7,-17.4,-150.9,0,0,3360,0,193,0,
1.8700,274.2,-236.7,-10.2,93.6,115.5,-30.0,-169.2,0,0,3366,0,194,0,
1.8733,244.2,-263.7,-4.2,96.0,106.2,-45.3,-183.0,0,0,3372,0,195,0,
1.8767,255.6,-261.3,-50.7,90.6,103.8,-42.6,-172.8,0,0,3378,0,196,0,
1.8800,298.8,-229.5,-6.9,97.8,125.4,-14.4,-149.1,0,0,3384,0,197,0,
1.8833,298.5,-234.0,-6.6,102.0,126.3,-18.3,-145.5,0,0,3390,0,198,0,
1.8867,286.5,-243.0,-6.9,99.0,123.9,2.7,-150.3,0,0,3396,0,199,0,
1.8900,261.3,-267.0,-23.4,99.9,114.6,-31.8,-167.4,0,0,3402,0,200,0,
1.8933,284.4,-250.2,-6.3,114.0,112.5,-37.2,-158.4,0,0,3408,0,201,0,
1.8967,304.8,-240.0,38.1,111.9,128.7,-6.9,-138.9,0,0,3414,0,202,0,
1.9000,317.7,-233.1,-24.3,96.6,126.6,-6.6,-131.4,0,0,3420,0,203,0,
1.9033,307.5,-241.8,5.4,102.6,119.7,-15.6,-144.6,0,0,3426,0,204,0,
1.9067,309.9,-235.2,-11.1,90.6,128.4,3.3,-141.0,0,0,3432,0,205,0,
1.9100,303.3,-238.5,-3.9,95.4,125.7,-2.1,-129.6,0,0,3438,0,206,0,
1.9133,307.5,-242.4,1.5,95.1,120.9,-22.8,-155.7,0,0,3444,0,207,0,
1.9167,299.7,-248.7,31.2,106.5,129.0,-7.5,-127.8,0,0,3450,0,208,0,
1.9200,296.7,-248.4,-21.6,93.0,117.6,-24.0,-168.0,0,0,3456,0,209,0,
1.9233,294.9,-273.0,-40.2,86.4,108.3,-26.4,-156.0,0,0,3462,0,210,0,
1.9267,293.4,-269.1,-30.9,91.2,111.9,-30.9,-178.5,0,0,3468,0,211,0,
1.9300,289.5,-261.3,-16.2,91.2,115.2,-16.5,-160.8,0,0,3474,0,212,0,
1.9333,293.7,-254.1,-9.0,90.9,111.9,-20.7,-156.3,0,0,3480,0,213,0,
1.9367,289.8,-258.6,-22.5,79.2,109.8,-27.0,-162.6,0,0,3486,0,214,0,
1.9400,273.9,-267.6,1.5,84.9,99.9,-36.0,-159.0,0,0,3492,0,215,0,
1.9433,282.3,-269.1,-30.3,80.7,106.2,-29.7,-149.4,0,0,3498,0,216,0,
1.9467,291.9,-267.9,6.6,90.0,110.7,-24.0,-160.5,0,0,3504,0,217,0,
1.9500,286.5,-267.6,-20.1,84.3,112.2,-26.1,-165.9,0,0,3510,0,218,0,
1.9533,286.8,-268.2,-21.3,84.9,117.0,-19.2,-167.1,0,0,3516,0,219,0,
1.9567,283.5,-279.6,-19.5,86.7,107.1,-18.6,-161.4,0,0,3522,0,220,0,
1.9600,276.3,-273.6,19.5,96.0,111.3,-18.0,-160.8,0,0,3528,0,221,0,
1.9633,283.5,-273.9,-26.1,83.7,112.5,-40.8,-167.1,0,0,3534,0,222,0,
1.9667,290.7,-269.4,-26.7,94.2,117.3,-30.6,-145.8,0,0,3540,0,223,0,
1.9700,284.1,-264.0,-3.9,95.7,117.3,-26.4,-162.9,0,0,3546,0,224,0,
1.9733,284.1,-275.4,-17.1,99.6,121.2,-29.7,-175.8,0,0,3552,0,225,0,
1.9767,278.7,-282.3,-24.6,88.2,114.0,-38.1,-162.6,0,0,3558,0,226,0,
1.9800,273.6,-279.3,-2.7,99.0,120.9,-30.9,-165.3,0,0,3564,0,227,0,
1.9833,279.6,-283.8,-6.3,97.8,120.3,-27.9,-158.4,0,0,3570,0,228,0,
1.9867,281.7,-270.3,-3.0,96.6,118.8,-35.7,-165.0,0,0,3576,0,229,0,
1.9900,271.5,-280.2,-25.2,88.2,117.3,-34.5,-173.4,0,0,3582,0,230,0,
1.9933,274.8,-281.4,-21.6,98.1,118.8,-37.5,-171.0,0,0,3588,0,231,0,
1.9967,282.9,-281.7,-7.8,99.0,121.5,-27.6,-158.7,0,0,3594,0,232,0,
2.0000,282.9,-275.7,-20.1,104.4,121.8,-34.8,-170.7,0,0,3600,0,233,0,
2.0033,286.2,-271.5,-7.2,104.4,121.8,-33.6,-156.0,0,0,3606,0,234,0,
2.0067,284.7,-276.6,-32.7,97.5,125.1,-25.5,-164.4,0,0,3612,0,235,0,
2.0100,273.3,-284.4,-6.9,95.1,120.6,-46.8,-174.6,0,0,3618,0,236,0,
2.0133,272.7,-289.2,-27.0,91.5,116.7,-31.2,-173.7,0,0,3624,0,237,0,
2.0167,283.5,-285.6,-22.5,89.4,124.5,-34.5,-145.2,0,0,3630,0,238,0,
2.0200,288.3,-261.9,-25.5,94.8,123.0,-32.4,-160.5,0,0,3636,0,239,0,
2.0233,283.5,-271.8,-18.3,96.0,120.6,-32.4,-156.0,0,0,3642,0,240,0,
2.0267,283.5,-261.9,-13.8,94.2,129.3,-9.9,-148.5,0,0,3648,0,241,0,
2.0300,294.0,-254.4,8.1,100.5,123.3,-26.1,-138.9,0,0,3654,0,242,0,
2.0333,309.6,-253.5,-12.9,99.3,124.5,-19.5,-148.8,0,0,3660,0,243,0,
2.0367,297.9,-257.4,7.5,104.1,120.3,-22.2,-144.6,0,0,3666,0,244,0,
2.0400,293.4,-268.5,-14.1,99.3,120.9,-27.9,-150.3,0,0,3672,0,245,0,
2.0433,296.4,-261.9,8.7,98.1,122.1,-25.5,-152.4,0,0,3678,0,246,0,
2.0467,294.6,-256.8,-15.9,104.7,124.8,-21.3,-150.0,0,0,3684,0,247,0,
2.0500,294.0,-278.4,12.0,108.9,126.0,-11.7,-147.9,0,0,3690,0,248,0,
2.0533,304.2,-266.4,-13.5,102.9,128.7,-26.1,-166.5,0,0,3696,0,249,0,
2.0567,302.7,-261.0,-10.5,104.4,135.0,-12.9,-138.6,0,0,3702,0,250,0,
2.0600,294.0,-280.8,-8.4,101.7,121.5,-23.7,-149.7,0,0,3708,0,251,0,
2.0633,291.0,-271.5,-10.8,93.3,117.9,-28.5,-153.9,0,0,3714,0,252,0,
2.0667,282.3,-281.1,-22.8,96.0,114.9,-22.8,-142.5,0,0,3720,0,253,0,
2.0700,285.3,-279.0,-31.8,97.5,118.8,-30.3,-153.0,0,0,3726,0,254,0,
2.0733,262.8,-289.2,-10.8,98.7,124.2,-5.4,-150.0,0,0,3732,0,255,0,
2.0767,284.4,-284.7,-18.9,94.2,125.4,-21.6,-139.5,0,0,3738,0,0,0,
2.0800,288.9,-280.5,-25.8,95.7,121.2,-38.4,-171.3,0,0,3744,0,1,0,
2.0833,288.0,-285.9,-19.5,104.4,122.7,-24.0,-151.5,0,0,3750,0,2,0,
2.0867,292.5,-271.5,-5.1,92.7,121.5,-22.5,-150.3,0,0,3756,0,3,0,
2.0900,274.8,-282.0,-21.3,92.1,116.1,-21.0,-151.2,0,0,3762,0,4,0,
2.0933,270.0,-298.5,-32.4,91.5,116.7,-31.8,-166.5,0,0,3768,0,5,0,
2.0967,271.5,-291.6,-27.0,88.5,117.0,-33.0,-153.6,0,0,3774,0,6,0,
2.1000,270.0,-303.3,-34.8,89.7,118.5,-29.1,-166.8,0,0,3780,0,7,0,
2.1033,263.1,-295.2,-28.5,87.0,112.8,-28.5,-165.6,0,0,3786,0,8,0,
2.1067,286.8,-293.1,-0.9,91.5,120.0,-27.6,-152.4,0,0,3792,0,9,0,
2.1100,303.3,-269.1,-15.9,94.8,125.7,-9.9,-121.8,0,0,3798,0,10,0,
2.1133,295.2,-279.0,-15.9,96.6,129.0,-10.5,-148.5,0,0,3804,0,11,0,
2.1167,256.5,-309.0,-31.8,99.9,109.5,-40.5,-172.2,0,0,3810,0,12,0,
2.1200,249.9,-318.3,-10.5,105.6,100.2,-50.7,-184.8,0,0,3816,0,13,0,
2.1233,299.4,-280.2,-10.8,105.0,128.4,-8.7,-141.9,0,0,3822,0,14,0,
2.1267,310.8,-264.6,-10.5,83.4,136.8,15.6,-139.8,0,0,3828,0,15,0,
2.1300,273.3,-308.4,-30.3,94.2,114.0,-52.5,-162.3,0,0,3834,0,16,0,
2.1333,229.2,-341.7,-70.2,95.4,93.3,-58.5,-200.1,0,0,3840,0,17,0,
2.1367,247.8,-317.1,-36.3,110.4,96.3,-46.2,-186.9,0,0,3846,0,18,0,
2.1400,336.3,-252.0,-1.5,93.3,135.0,3.6,-117.3,0,0,3852,0,19,0,
2.1433,331.2,-247.5,-3.0,78.3,137.4,8.4,-123.6,0,0,3858,0,20,0,
2.1467,316.8,-264.3,-0.9,93.6,130.8,5.1,-122.7,0,0,3864,0,21,0,
2.1500,280.2,-299.7,-34.5,91.5,117.9,-29.1,-150.3,0,0,3870,0,22,0,
2.1533,271.5,-298.8,-38.1,96.3,108.6,-48.9,-165.6,0,0,3876,0,23,0,
2.1567,302.1,-292.8,-5.1,104.7,125.1,-18.6,-165.3,0,0,3882,0,24,0,
2.1600,324.0,-256.2,-18.0,97.8,136.5,0.0,-132.3,0,0,3888,0,25,0,
2.1633,326.7,-252.0,-3.3,92.4,136.5,-1.8,-130.8,0,0,3894,0,26,0,
2.1667,334.5,-278.1,-10.5,102.9,133.2,2.1,-128.7,0,0,3900,0,27,0,
2.1700,320.4,-278.4,-14.4,98.1,132.3,2.1,-128.7,0,0,3906,0,28,0,
2.1733,303.3,-289.2,-2.1,101.4,123.9,-17.4,-141.9,0,0,3912,0,29,0,
2.1767,310.8,-279.0,-25.8,95.7,128.7,2.4,-132.6,0,0,3918,0,30,0,
2.1800,305.1,-285.0,-10.2,104.7,122.1,-10.2,-162.3,0,0,3924,0,31,0,
2.1833,308.4,-280.5,-17.7,103.5,125.7,-27.3,-153.9,0,0,3930,0,32,0,
2.1867,300.0,-286.5,1.5,105.3,120.0,-19.2,-154.8,0,0,3936,0,33,0,
2.1900,298.5,-285.6,3.0,99.6,120.0,-23.7,-153.9,0,0,3942,0,34,0,
2.1933,300.3,-286.2,-25.5,104.4,130.5,-19.8,-142.8,0,0,3948,0,35,0,
2.1967,296.7,-292.8,-19.5,98.7,129.9,-5.7,-150.3,0,0,3954,0,36,0,
2.2000,301.2,-288.3,-17.1,107.4,135.3,-10.8,-153.3,0,0,3960,0,37,0,
2.2033,300.6,-288.9,-4.2,103.2,130.8,-12.9,-140.7,0,0,3966,0,38,0,
2.2067,287.7,-285.6,2.1,99.9,126.3,-25.5,-153.0,0,0,3972,0,39,0,
2.2100,295.8,-297.0,-34.2,93.0,129.3,-20.7,-167.7,0,0,3978,0,40,0,
2.2133,294.0,-285.9,-21.6,99.0,123.0,-25.5,-165.9,0,0,3984,0,41,0,
2.2167,293.4,-300.3,-37.5,93.6,121.8,-22.8,-171.0,0,0,3990,0,42,0,
2.2200,282.6,-288.6,-16.8,98.7,114.0,-30.3,-163.8,0,0,3996,0,43,0,
2.2233,281.1,-302.1,-2.7,99.6,120.0,-30.0,-168.0,0,0,4002,0,44,0,
2.2267,287.4,-312.0,-24.3,103.8,118.2,-27.6,-164.7,0,0,4008,0,45,0,
2.2300,295.5,-289.2,-30.6,97.2,128.1,-8.1,-149.4,0,0,4014,0,46,0,
2.2333,289.5,-306.6,-34.5,98.4,119.7,-22.8,-159.0,0,0,4020,0,47,0,
2.2367,291.6,-295.2,-8.1,96.0,129.0,-13.8,-154.8,0,0,4026,0,48,0,
2.2400,296.1,-282.0,-18.6,97.5,128.7,-11.1,-144.3,0,0,4032,0,49,0,
2.2433,300.0,-289.5,-26.7,96.6,130.2,-7.2,-136.8,0,0,4038,0,50,0,
2.2467,294.6,-303.9,-26.7,99.0,130.8,5.7,-171.3,0,0,4044,0,51,0,
2.2500,291.0,-300.9,-21.6,103.5,126.3,-31.2,-159.0,0,0,4050,0,52,0,
2.2533,296.7,-299.7,5.1,106.5,123.0,-27.9,-163.2,0,0,4056,0,53,0,
2.2567,296.1,-299.7,-35.7,93.0,122.4,-20.7,-150.9,0,0,4062,0,54,0,
2.2600,299.7,-298.8,-38.4,102.9,124.2,-16.8,-151.8,0,0,4068,0,55,0,
2.2633,284.7,-308.4,-17.4,95.4,126.9,-21.0,-152.4,0,0,4074,0,56,0,
2.2667,288.9,-300.3,-15.3,102.3,122.7,-31.8,-169.5,0,0,4080,0,57,0,
2.2700,289.8,-303.9,-58.2,84.0,125.4,-29.7,-162.9,0,0,4086,0,58,0,
2.2733,267.3,-316.2,-30.6,90.9,118.8,-33.6,-177.0,0,0,4092,0,59,0,
2.2767,287.1,-308.4,-11.4,84.6,116.7,-33.0,-168.3,0,0,4098,0,60,0,
2.2800,289.8,-322.2,-52.2,79.2,119.1,-26.1,-164.1,0,0,4104,0,61,0,
2.2833,280.8,-323.4,-36.3,92.7,119.7,-33.9,-171.9,0,0,4110,0,62,0,
2.2867,306.6,-287.7,-1.2,94.2,132.6,-15.0,-144.9,0,0,4116,0,63,0,
2.2900,306.0,-292.8,-26.4,91.5,134.1,-17.7,-148.5,0,0,4122,0,64,0,
2.2933,295.5,-294.6,-24.6,93.6,126.3,-19.8,-150.6,0,0,4128,0,65,0,
2.2967,285.9,-318.0,-43.2,89.4,123.3,-26.4,-160.8,0,0,4134,0,66,0,
2.3000,289.8,-310.2,-10.2,96.6,129.0,-13.5,-170.4,0,0,4140,0,67,0,
2.3033,303.3,-313.8,-23.1,93.0,136.2,-15.0,-142.5,0,0,4146,0,68,0,
2.3067,303.9,-305.4,-29.7,91.2,128.1,-17.4,-146.7,0,0,4152,0,69,0,
2.3100,290.7,-314.4,-34.8,92.1,128.4,-7.8,-150.6,0,0,4158,0,70,0,
2.3133,294.6,-313.2,-21.3,93.3,129.6,-10.5,-156.6,0,0,4164,0,71,0,
2.3167,297.3,-306.9,-21.6,90.0,126.3,-36.6,-157.5,0,0,4170,0,72,0,
2.3200,294.6,-321.9,-45.0,89.1,130.2,-17.4,-165.3,0,0,4176,0,73,0,
2.3233,291.9,-316.8,-28.5,85.8,123.9,-28.2,-166.2,0,0,4182,0,74,0,
2.3267,290.1,-322.2,-22.8,92.1,120.9,-29.1,-175.5,0,0,4188,0,75,0,
2.3300,289.5,-317.7,-39.0,87.6,115.8,-30.6,-167.7,0,0,4194,0,76,0,
2.3333,292.8,-327.0,-40.8,97.2,130.8,-19.2,-163.5,0,0,4200,0,77,0,
2.3367,292.5,-329.7,-17.4,95.1,121.8,-36.0,-158.1,0,0,4206,0,78,0,
2.3400,296.7,-323.1,-36.9,86.7,123.9,-31.2,-167.1,0,0,4212,0,79,0,
2.3433,291.6,-318.9,-24.3,90.3,117.6,-35.4,-156.6,0,0,4218,0,80,0,
2.3467,294.9,-320.7,-23.7,90.0,112.5,-33.0,-160.2,0,0,4224,0,81,0,
2.3500,294.0,-324.3,-38.1,87.0,112.5,-30.6,-147.0,0,0,4230,0,82,0,
2.3533,286.8,-323.4,-49.5,84.0,110.7,-43.5,-182.7,0,0,4236,0,83,0,
2.3567,280.2,-312.9,-31.2,91.2,107.4,-42.6,-169.8,0,0,4242,0,84,0,
2.3600,294.9,-326.1,-45.6,93.6,111.3,-40.8,-176.7,0,0,4248,0,85,0,
2.3633,296.4,-316.2,-28.2,102.3,114.3,-34.8,-168.3,0,0,4254,0,86,0,
2.3667,298.5,-322.2,-23.7,111.6,116.7,-39.0,-167.1,0,0,4260,0,87,0,
2.3700,294.6,-320.4,-21.3,106.8,118.5,-26.7,-169.2,0,0,4266,0,88,0,
2.3733,282.3,-330.3,-18.3,103.2,118.8,-24.0,-173.1,0,0,4272,0,89,0,
2.3767,299.7,-325.5,-48.3,102.0,114.3,-41.7,-168.9,0,0,4278,0,90,0,
2.3800,279.0,-326.4,-42.9,97.2,113.7,-40.2,-174.6,0,0,4284,0,91,0,
2.3833,293.4,-318.9,-37.8,96.3,117.9,-39.3,-174.6,0,0,4290,0,92,0,
2.3867,290.7,-331.5,-33.9,101.4,117.6,-25.8,-159.0,0,0,4296,0,93,0,
2.3900,299.7,-323.4,-29.7,102.3,124.5,-28.8,-155.1,0,0,4302,0,94,0,
2.3933,295.2,-324.3,-34.2,96.0,123.3,-22.2,-156.3,0,0,4308,0,95,0,
2.3967,293.7,-324.0,-23.1,103.5,122.1,-30.0,-180.3,0,0,4314,0,96,0,
2.4000,297.6,-313.8,-24.3,93.3,129.9,-25.2,-165.6,0,0,4320,0,97,0,
2.4033,291.0,-327.6,-23.7,95.7,121.8,-29.4,-170.1,0,0,4326,0,98,0,
2.4067,292.2,-328.8,-32.4,98.1,122.7,-34.8,-170.4,0,0,4332,0,99,0,
2.4100,293.1,-333.9,-46.5,86.4,120.0,-36.3,-169.5,0,0,4338,0,100,0,
2.4133,296.7,-324.3,-41.1,90.6,124.8,-24.3,-167.4,0,0,4344,0,101,0,
2.4167,290.4,-330.6,-44.1,98.4,124.2,-33.3,-170.4,0,0,4350,0,102,0,
2.4200,282.6,-339.3,-44.1,98.1,126.6,-36.9,-174.9,0,0,4356,0,103,0,
2.4233,285.0,-338.4,-33.3,99.9,127.5,-31.8,-167.1,0,0,4362,0,104,0,
2.4267,287.1,-333.9,-22.2,98.7,121.2,-34.2,-178.5,0,0,4368,0,105,0,
2.4300,289.2,-331.5,-29.7,96.3,120.6,-31.8,-156.9,0,0,4374,0,106,0,
2.4333,294.3,-326.4,-44.4,89.7,126.9,-14.4,-149.4,0,0,4380,0,107,0,
2.4367,296.7,-324.0,-26.1,95.4,120.3,-34.2,-165.6,0,0,4386,0,108,0,
2.4400,302.1,-337.5,-34.2,84.3,128.7,-6.6,-180.6,0,0,4392,0,109,0,
2.4433,300.6,-321.3,-34.2,84.3,125.1,-44.1,-167.7,0,0,4398,0,110,0,
2.4467,292.8,-341.4,-45.3,85.2,117.6,-32.1,-173.1,0,0,4404,0,111,0,
2.4500,299.1,-329.1,-31.5,85.8,117.3,-28.5,-163.5,0,0,4410,0,112,0,
2.4533,291.0,-327.3,-26.4,88.5,111.9,-49.2,-177.6,0,0,4416,0,113,0,
2.4567,285.3,-332.7,-45.6,75.6,105.6,-48.6,-181.8,0,0,4422,0,114,0,
2.4600,284.7,-333.9,-76.5,74.4,108.9,-39.3,-175.8,0,0,4428,0,115,0,
2.4633,282.3,-316.5,-20.7,86.1,110.1,-42.6,-167.7,0,0,4434,0,116,0,
2.4667,285.3,-328.8,-62.7,83.4,116.7,-41.4,-169.2,0,0,4440,0,117,0,
2.4700,285.9,-320.4,-30.6,89.4,115.2,-34.2,-171.9,0,0,4446,0,118,0,
2.4733,285.9,-314.7,-52.8,85.2,113.4,-34.2,-171.3,0,0,4452,0,119,0,
2.4767,283.2,-309.9,-41.1,87.0,110.4,-40.2,-162.3,0,0,4458,0,120,0,
2.4800,285.3,-323.7,-14.1,91.2,113.4,-45.0,-172.8,0,0,4464,0,121,0,
2.4833,284.7,-318.3,-48.0,90.9,109.2,-41.7,-177.6,0,0,4470,0,122,0,
2.4867,283.5,-316.5,-57.3,89.7,107.1,-47.1,-180.3,0,0,4476,0,123,0,
2.4900,284.1,-313.2,-40.2,100.8,111.3,-42.0,-177.0,0,0,4482,0,124,0,
2.4933,289.2,-306.9,-42.0,93.3,109.8,-42.6,-172.2,0,0,4488,0,125,0,
2.4967,279.0,-307.8,-35.7,97.8,102.6,-56.4,-186.0,0,0,4494,0,126,0,
2.5000,284.1,-288.6,-39.6,93.9,105.6,-49.2,-178.8,0,0,4500,0,127,0,
2.5033,293.7,-286.5,-30.3,92.7,103.8,-50.1,-159.9,0,0,4506,0,128,0,
2.5067,281.7,-297.0,-38.4,88.5,103.2,-46.2,-175.5,0,0,4512,0,129,0,
2.5100,278.4,-286.5,-45.9,87.0,98.1,-59.4,-184.5,0,0,4518,0,130,0,
2.5133,285.9,-295.8,-23.1,88.5,104.7,-46.8,-155.4,0,0,4524,0,131,0,
2.5167,283.2,-276.3,-28.5,85.8,102.6,-49.8,-174.6,0,0,4530,0,132,0,
2.5200,289.5,-278.1,-15.9,82.2,103.8,-44.4,-175.2,0,0,4536,0,133,0,
2.5233,297.3,-282.3,-38.7,91.5,101.4,-59.7,-160.2,0,0,4542,0,134,0,
2.5267,299.7,-279.0,-52.8,92.7,103.8,-46.8,-175.8,0,0,4548,0,135,0,
2.5300,287.1,-282.0,-37.5,91.8,98.7,-53.7,-167.7,0,0,4554,0,136,0,
2.5333,289.8,-275.7,-32.4,88.2,104.1,-52.8,-175.5,0,0,4560,0,137,0,
2.5367,306.3,-249.3,-14.7,97.8,105.0,-45.0,-150.0,0,0,4566,0,138,0,
2.5400,303.9,-274.5,-30.0,96.6,102.6,-46.5,-171.3,0,0,4572,0,139,0,
2.5433,304.5,-260.4,-20.7,98.4,104.1,-48.3,-159.6,0,0,4578,0,140,0,
2.5467,300.9,-267.0,-14.1,103.2,111.3,-32.1,-152.7,0,0,4584,0,141,0,
2.5500,297.9,-265.5,1.5,109.8,111.9,-43.5,-160.2,0,0,4590,0,142,0,
2.5533,293.4,-288.9,-31.5,97.8,104.1,-58.8,-162.6,0,0,4596,0,143,0,
2.5567,292.5,-279.6,-34.8,85.5,103.5,-57.3,-179.7,0,0,4602,0,144,0,
2.5600,294.6,-278.7,-3.9,96.6,106.2,-44.7,-167.4,0,0,4608,0,145,0,
2.5633,300.6,-273.0,-31.8,89.4,116.1,-36.9,-163.5,0,0,4614,0,146,0,
2.5667,288.0,-284.7,-23.7,90.6,104.1,-45.6,-166.5,0,0,4620,0,147,0,
2.5700,281.7,-285.0,-51.6,84.0,103.5,-48.9,-177.3,0,0,4626,0,148,0,
2.5733,281.1,-293.7,-23.7,91.8,102.3,-52.2,-184.2,0,0,4632,0,149,0,
2.5767,281.1,-298.2,-38.7,77.7,100.2,-57.0,-177.6,0,0,4638,0,150,0,
2.5800,270.9,-309.0,-31.2,87.0,91.8,-67.2,-188.7,0,0,4644,0,151,0,
2.5833,273.3,-290.4,-48.9,81.3,98.4,-57.0,-186.0,0,0,4650,0,152,0,
2.5867,280.8,-298.5,-47.4,78.6,98.7,-54.9,-185.7,0,0,4656,0,153,0,
2.5900,267.6,-306.0,-41.7,79.8,92.4,-67.8,-192.0,0,0,4662,0,154,0,
2.5933,276.6,-299.7,-30.0,81.0,92.4,-46.5,-192.3,0,0,4668,0,155,0,
2.5967,285.6,-304.2,-44.1,77.4,91.8,-61.2,-188.7,0,0,4674,0,156,0,
2.6000,285.3,-296.4,-51.9,79.8,91.8,-65.4,-177.0,0,0,4680,0,157,0,
2.6033,271.2,-304.8,-34.2,83.7,94.8,-60.9,-180.0,0,0,4686,0,158,0,
2.6067,264.6,-303.9,-43.5,81.3,94.2,-64.5,-181.8,0,0,4692,0,159,0,
2.6100,276.6,-285.6,-32.7,77.4,101.7,-50.1,-175.2,0,0,4698,0,160,0,
2.6133,289.5,-285.0,-32.1,78.9,100.8,-59.4,-171.9,0,0,4704,0,161,0,
2.6167,285.6,-297.3,-27.3,81.6,97.2,-54.6,-176.7,0,0,4710,0,162,0,
2.6200,280.2,-289.5,-46.2,83.1,99.6,-54.6,-178.2,0,0,4716,0,163,0,
2.6233,276.0,-291.6,-40.2,80.7,97.8,-53.7,-177.0,0,0,4722,0,164,0,
2.6267,280.5,-292.2,-28.2,78.6,103.2,-39.6,-170.4,0,0,4728,0,165,0,
2.6300,298.8,-279.3,-24.9,84.9,101.4,-42.3,-152.7,0,0,4734,0,166,0,
2.6333,289.2,-276.9,-4.8,94.8,100.8,-50.1,-162.3,0,0,4740,0,167,0,
2.6367,291.6,-280.5,-13.5,80.7,94.8,-57.3,-174.9,0,0,4746,0,168,0,
2.6400,289.5,-281.1,-40.2,80.1,95.7,-50.1,-166.5,0,0,4752,0,169,0,
2.6433,292.5,-263.4,-2.1,80.4,102.9,-41.7,-147.6,0,0,4758,0,170,0,
2.6467,294.0,-272.7,-28.8,81.3,102.3,-48.0,-185.1,0,0,4764,0,171,0,
2.6500,284.4,-271.5,-30.6,82.5,99.9,-40.5,-163.8,0,0,4770,0,172,0,
2.6533,300.0,-261.9,-20.4,79.5,106.5,-34.5,-156.9,0,0,4776,0,173,0,
2.6567,297.0,-262.5,-8.7,81.0,112.2,-26.1,-152.4,0,0,4782,0,174,0,
2.6600,308.7,-258.6,-18.9,84.6,105.3,-39.0,-141.0,0,0,4788,0,175,0,
2.6633,291.6,-255.3,2.4,90.6,111.9,-10.2,-144.3,0,0,4794,0,176,0,
2.6667,294.3,-276.9,-2.4,90.3,107.1,-47.1,-160.2,0,0,4800,0,177,0,
2.6700,288.3,-273.0,-24.6,87.0,99.6,-54.0,-166.8,0,0,4806,0,178,0,
2.6733,307.5,-263.4,-30.0,80.4,103.8,-39.3,-154.2,0,0,4812,0,179,0,
2.6767,295.5,-258.0,-15.3,88.5,103.8,-39.9,-150.0,0,0,4818,0,180,0,
2.6800,307.2,-258.6,-31.5,85.5,110.1,-40.2,-147.3,0,0,4824,0,181,0,
2.6833,297.3,-258.0,-21.3,97.2,109.8,-31.8,-149.7,0,0,4830,0,182,0,
2.6867,301.8,-275.4,-28.5,90.0,102.0,-42.3,-156.0,0,0,4836,0,183,0,
2.6900,289.2,-257.7,-17.1,90.0,99.3,-45.3,-160.5,0,0,4842,0,184,0,
2.6933,292.5,-263.7,-17.4,90.6,105.6,-42.0,-157.8,0,0,4848,0,185,0,
2.6967,303.6,-263.4,-8.4,99.3,119.1,-21.6,-154.5,0,0,4854,0,186,0,
2.7000,299.7,-260.4,-12.9,85.8,106.8,-45.0,-156.6,0,0,4860,0,187,0,
2.7033,285.3,-267.6,-33.6,81.9,97.5,-54.6,-167.7,0,0,4866,0,188,0,
2.7067,279.3,-270.3,5.1,82.8,96.3,-52.5,-170.4,0,0,4872,0,189,0,
2.7100,285.0,-269.1,-45.3,75.0,98.7,-38.1,-164.1,0,0,4878,0,190,0,
2.7133,295.8,-264.6,-26.7,78.9,102.6,-49.2,-149.4,0,0,4884,0,191,0,
2.7167,297.6,-269.4,-33.6,81.6,103.5,-44.1,-144.3,0,0,4890,0,192,0,
2.7200,302.1,-265.5,-21.3,83.4,96.6,-49.2,-175.5,0,0,4896,0,193,0,
2.7233,294.6,-269.7,-11.1,89.4,99.6,-47.1,-165.6,0,0,4902,0,194,0,
2.7267,286.8,-261.6,-22.8,89.7,92.4,-52.2,-169.8,0,0,4908,0,195,0,
2.7300,284.1,-261.6,-21.0,82.8,102.6,-47.4,-165.6,0,0,4914,0,196,0,
2.7333,284.7,-269.4,-9.6,87.3,101.1,-47.7,-171.0,0,0,4920,0,197,0,
2.7367,288.6,-274.5,-29.7,85.8,100.5,-50.4,-167.1,0,0,4926,0,198,0,
2.7400,293.4,-280.2,-1.2,85.2,94.2,-54.3,-167.1,0,0,4932,0,199,0,
2.7433,295.8,-269.7,-41.7,72.6,101.4,-50.4,-165.9,0,0,4938,0,200,0,
2.7467,280.5,-284.1,-26.1,76.8,99.9,-33.6,-174.9,0,0,4944,0,201,0,
2.7500,288.3,-274.2,-25.8,80.7,100.5,-55.8,-173.7,0,0,4950,0,202,0,
2.7533,285.9,-273.6,-32.7,78.9,97.2,-53.7,-174.6,0,0,4956,0,203,0,
2.7567,287.1,-274.5,-35.4,71.4,98.1,-48.9,-177.9,0,0,4962,0,204,0,
2.7600,285.6,-282.3,-34.8,70.8,96.0,-48.6,-177.3,0,0,4968,0,205,0,
2.7633,285.9,-282.9,-28.2,75.0,102.3,-42.9,-173.1,0,0,4974,0,206,0,
2.7667,278.7,-271.8,-20.1,72.9,94.5,-54.0,-161.4,0,0,4980,0,207,0,
2.7700,282.9,-271.5,-19.2,72.9,101.1,-48.6,-173.4,0,0,4986,0,208,0,
2.7733,285.3,-281.4,-39.6,76.2,95.1,-53.7,-165.9,0,0,4992,0,209,0,
2.7767,283.8,-273.6,-39.0,71.7,103.2,-49.5,-169.2,0,0,4998,0,210,0,
2.7800,275.4,-288.9,-25.2,75.3,97.5,-58.2,-184.2,0,0,5004,0,211,0,
2.7833,275.4,-276.9,-21.6,73.5,101.7,-49.2,-174.0,0,0,5010,0,212,0,
2.7867,281.1,-279.0,-38.4,72.9,96.0,-55.2,-184.5,0,0,5016,0,213,0,
2.7900,284.7,-264.0,-24.9,77.4,98.1,-48.6,-175.5,0,0,5022,0,214,0,
2.7933,291.0,-260.7,-21.9,84.0,103.5,-46.2,-163.5,0,0,5028,0,215,0,
2.7967,291.6,-261.3,-21.9,84.9,99.3,-39.3,-165.6,0,0,5034,0,216,0,
2.8000,285.0,-274.5,-28.8,76.2,108.3,-39.9,-167.4,0,0,5040,0,217,0,
2.8033,295.5,-267.6,-17.4,81.3,107.1,-37.5,-146.4,0,0,5046,0,218,0,
2.8067,294.6,-271.5,-28.5,79.5,102.6,-38.4,-161.7,0,0,5052,0,219,0,
2.8100,295.5,-268.5,-19.5,80.7,103.8,-34.5,-142.8,0,0,5058,0,220,0,
2.8133,304.8,-258.0,-12.0,94.8,108.0,-29.1,-161.7,0,0,5064,0,221,0,
2.8167,297.6,-257.1,2.7,98.7,110.1,-30.9,-159.3,0,0,5070,0,222,0,
2.8200,294.6,-253.5,-11.4,94.2,118.2,-18.6,-156.3,0,0,5076,0,223,0,
2.8233,296.7,-257.4,-15.3,90.3,114.3,-24.3,-159.6,0,0,5082,0,224,0,
2.8267,308.1,-260.1,-5.1,100.8,119.1,-18.9,-143.4,0,0,5088,0,225,0,
2.8300,311.7,-256.2,5.7,94.5,117.6,-24.6,-136.8,0,0,5094,0,226,0,
2.8333,306.0,-256.2,3.0,92.4,119.7,-8.4,-149.4,0,0,5100,0,227,0,
2.8367,303.6,-256.2,-22.8,93.6,118.2,-28.2,-151.2,0,0,5106,0,228,0,
2.8400,289.5,-269.7,-9.6,92.1,102.3,-53.7,-172.2,0,0,5112,0,229,0,
2.8433,303.0,-261.9,-28.2,84.9,111.6,-31.2,-148.5,0,0,5118,0,230,0,
2.8467,302.1,-260.4,-15.6,94.8,114.0,-36.0,-147.6,0,0,5124,0,231,0,
2.8500,305.7,-263.4,-21.6,92.4,119.7,-24.9,-153.0,0,0,5130,0,232,0,
2.8533,297.6,-272.7,-18.9,93.6,108.0,-42.6,-173.7,0,0,5136,0,233,0,
2.8567,297.6,-270.6,-20.4,93.3,107.4,-41.4,-170.4,0,0,5142,0,234,0,
2.8600,310.5,-268.5,-10.8,98.1,108.0,-31.8,-159.9,0,0,5148,0,235,0,
2.8633,311.7,-253.8,-16.5,93.6,115.8,-27.3,-150.0,0,0,5154,0,236,0,
2.8667,297.9,-264.3,-5.7,96.6,108.0,-34.8,-158.4,0,0,5160,0,237,0,
2.8700,287.7,-274.5,-22.8,96.9,105.0,-33.0,-144.6,0,0,5166,0,238,0,
2.8733,296.7,-261.9,-19.2,90.6,107.4,-27.0,-152.4,0,0,5172,0,239,0,
2.8767,310.8,-246.6,-14.7,96.9,104.4,-36.9,-137.1,0,0,5178,0,240,0,
2.8800,311.4,-253.2,-15.6,94.8,107.7,-30.3,-144.9,0,0,5184,0,241,0,
2.8833,301.8,-266.1,-29.1,91.2,104.1,-30.3,-144.6,0,0,5190,0,242,0,
2.8867,295.8,-261.9,-20.4,92.7,107.1,-25.5,-163.2,0,0,5196,0,243,0,
2.8900,294.3,-261.0,-18.3,88.8,103.5,-45.9,-156.3,0,0,5202,0,244,0,
2.8933,295.2,-252.0,1.5,95.4,106.2,-30.3,-160.8,0,0,5208,0,245,0,
2.8967,296.7,-272.1,-17.7,95.1,104.7,-38.7,-158.1,0,0,5214,0,246,0,
2.9000,291.0,-267.3,-2.1,94.5,102.6,-43.2,-178.2,0,0,5220,0,247,0,
2.9033,290.4,-263.4,-15.6,80.7,107.4,-38.4,-161.1,0,0,5226,0,248,0,
2.9067,287.1,-261.6,-44.1,85.5,100.5,-40.2,-163.2,0,0,5232,0,249,0,
2.9100,297.6,-265.5,6.0,93.0,105.6,-36.0,-159.6,0,0,5238,0,250,0,
2.9133,295.5,-276.0,-34.2,85.5,108.9,-34.5,-164.1,0,0,5244,0,251,0,
2.9167,292.5,-254.4,-18.6,87.3,102.3,-30.9,-154.5,0,0,5250,0,252,0,
2.9200,281.7,-274.5,-21.3,89.4,101.7,-39.3,-174.0,0,0,5256,0,253,0,
2.9233,275.7,-277.5,-45.9,82.8,93.3,-42.9,-168.9,0,0,5262,0,254,0,
2.9267,266.4,-276.0,-41.4,83.1,99.9,-37.8,-178.8,0,0,5268,0,255,0,
2.9300,270.0,-278.1,-27.6,82.5,97.2,-48.9,-142.8,0,0,5274,0,0,0,
2.9333,298.5,-265.8,-24.6,93.0,98.1,-30.0,-162.0,0,0,5280,0,1,0,
2.9367,284.4,-269.7,-21.0,94.8,88.5,-30.0,-167.7,0,0,5286,0,2,0,
2.9400,271.5,-276.6,-29.4,94.2,88.5,-62.4,-180.0,0,0,5292,0,3,0,
2.9433,281.4,-280.5,-22.8,90.3,88.8,-47.7,-174.0,0,0,5298,0,4,0,
2.9467,296.4,-276.6,-19.2,82.5,100.8,-30.0,-154.2,0,0,5304,0,5,0,
2.9500,293.7,-273.0,-17.7,84.0,95.4,-40.5,-163.8,0,0,5310,0,6,0,
2.9533,284.1,-276.9,-8.7,89.7,93.6,-42.6,-167.4,0,0,5316,0,7,0,
2.9567,297.6,-275.1,-41.4,74.7,97.8,-36.0,-159.6,0,0,5322,0,8,0,
2.9600,294.9,-270.3,-23.1,81.3,97.2,-32.7,-158.1,0,0,5328,0,9,0,
2.9633,294.6,-270.0,-18.9,80.1,100.2,-31.2,-146.7,0,0,5334,0,10,0,
2.9667,284.7,-281.4,-29.1,80.7,89.4,-42.9,-165.0,0,0,5340,0,11,0,
2.9700,268.2,-287.1,-21.0,84.0,85.8,-52.5,-178.2,0,0,5346,0,12,0,
2.9733,277.2,-296.1,-48.9,74.1,89.4,-41.7,-160.8,0,0,5352,0,13,0,
2.9767,281.7,-279.9,-43.8,70.8,88.8,-45.0,-166.2,0,0,5358,0,14,0,
2.9800,289.8,-269.7,-31.5,80.1,99.9,-22.8,-147.3,0,0,5364,0,15,0,
2.9833,292.8,-271.2,-27.3,80.4,108.0,-26.1,-159.6,0,0,5370,0,16,0,
2.9867,281.4,-283.5,-35.1,77.1,93.0,-49.2,-161.7,0,0,5376,0,17,0,
2.9900,271.8,-277.8,-27.9,75.9,91.8,-53.1,-175.2,0,0,5382,0,18,0,
2.9933,286.5,-279.6,-37.8,72.9,95.4,-41.1,-156.6,0,0,5388,0,19,0,
2.9967,284.1,-285.3,-28.8,72.3,91.8,-44.1,-161.1,0,0,5394,0,20,0,
3.0000,294.6,-278.4,-21.0,79.5,91.5,-45.0,-154.5,0,0,5400,0,21,0,
3.0033,286.5,-279.9,-13.8,82.2,91.5,-46.5,-150.6,0,0,5406,0,22,0,
3.0067,286.8,-265.2,-44.1,71.7,87.6,-53.1,-174.3,0,0,5412,0,23,0,
3.0100,287.1,-293.4,-18.9,76.5,90.3,-50.1,-186.9,0,0,5418,0,24,0,
3.0133,281.1,-289.5,-63.9,67.2,93.6,-44.4,-166.5,0,0,5424,0,25,0,
3.0167,275.1,-297.0,-50.1,76.2,87.3,-59.4,-172.8,0,0,5430,0,26,0,
3.0200,275.1,-306.6,-50.1,69.6,94.5,-38.4,-177.6,0,0,5436,0,27,0,
3.0233,278.7,-299.4,-41.1,66.0,96.3,-49.8,-179.1,0,0,5442,0,28,0,
3.0267,280.2,-297.0,-24.3,79.2,91.5,-59.7,-167.4,0,0,5448,0,29,0,
3.0300,299.4,-286.8,-30.3,78.9,93.3,-40.2,-161.4,0,0,5454,0,30,0,
3.0333,296.4,-273.6,-37.5,75.0,94.2,-44.7,-160.8,0,0,5460,0,31,0,
3.0367,285.9,-290.1,-22.2,79.2,90.3,-42.9,-166.8,0,0,5466,0,32,0,
3.0400,279.9,-306.6,-52.2,70.8,93.0,-50.1,-175.8,0,0,5472,0,33,0,
3.0433,272.4,-308.1,-40.5,66.3,85.2,-63.3,-184.2,0,0,5478,0,34,0,
3.0467,276.9,-307.5,-42.9,68.4,82.5,-58.8,-193.5,0,0,5484,0,35,0,
3.0500,281.7,-310.8,-58.8,66.3,88.2,-56.1,-185.1,0,0,5490,0,36,0,
3.0533,290.4,-293.1,-51.3,63.3,91.5,-35.1,-180.9,0,0,5496,0,37,0,
3.0567,287.7,-296.4,-52.5,68.4,94.2,-45.3,-149.7,0,0,5502,0,38,0,
3.0600,275.7,-308.1,-35.4,75.3,81.0,-64.8,-186.0,0,0,5508,0,39,0,
3.0633,272.7,-303.3,-46.8,72.9,81.3,-69.9,-196.2,0,0,5514,0,40,0,
3.0667,283.2,-312.0,-58.5,64.5,89.7,-49.8,-187.2,0,0,5520,0,41,0,
3.0700,271.5,-314.4,-46.5,68.1,79.2,-67.8,-186.6,0,0,5526,0,42,0,
3.0733,272.1,-316.8,-60.0,65.4,80.4,-67.5,-189.3,0,0,5532,0,43,0,
3.0767,295.8,-293.7,-41.1,64.8,97.5,-44.4,-163.5,0,0,5538,0,44,0,
3.0800,303.6,-288.6,-30.0,69.9,98.4,-40.8,-165.6,0,0,5544,0,45,0,
3.0833,304.8,-303.6,-39.6,75.9,96.6,-46.2,-176.7,0,0,5550,0,46,0,
3.0867,288.3,-317.1,-48.6,74.1,99.6,-45.0,-175.5,0,0,5556,0,47,0,
3.0900,271.8,-327.0,-55.8,75.0,89.7,-43.5,-192.3,0,0,5562,0,48,0,
3.0933,277.5,-325.2,-43.2,74.1,88.5,-70.2,-192.3,0,0,5568,0,49,0,
3.0967,294.0,-304.8,-21.6,79.2,99.9,-43.8,-171.6,0,0,5574,0,50,0,
3.1000,292.5,-314.4,-31.8,79.8,97.2,-53.4,-172.2,0,0,5580,0,51,0,
3.1033,286.2,-307.8,-43.8,78.3,91.8,-57.9,-195.0,0,0,5586,0,52,0,
3.1067,283.8,-303.9,-27.6,75.0,88.5,-58.8,-192.0,0,0,5592,0,53,0,
3.1100,288.9,-318.9,-60.0,79.5,93.0,-55.8,-192.9,0,0,5598,0,54,0,
3.1133,287.7,-302.1,-10.5,95.7,98.4,-49.2,-180.9,0,0,5604,0,55,0,
3.1167,297.0,-302.7,-45.0,84.9,98.7,-48.9,-170.7,0,0,5610,0,56,0,
3.1200,277.8,-309.6,-46.8,82.8,89.7,-54.3,-190.5,0,0,5616,0,57,0,
3.1233,271.2,-319.2,-44.7,82.8,90.0,-65.7,-197.7,0,0,5622,0,58,0,
3.1267,260.4,-325.2,-20.4,85.8,88.2,-56.1,-193.8,0,0,5628,0,59,0,
3.1300,285.0,-307.2,-37.8,88.8,108.3,-41.1,-170.7,0,0,5634,0,60,0,
3.1333,283.5,-291.9,-35.7,84.0,103.8,-50.7,-175.2,0,0,5640,0,61,0,
3.1367,277.2,-308.4,-46.2,82.5,93.9,-61.8,-178.8,0,0,5646,0,62,0,
3.1400,268.2,-313.2,-50.1,78.0,97.8,-58.2,-186.6,0,0,5652,0,63,0,
3.1433,292.5,-296.7,-29.4,81.6,98.1,-48.3,-179.1,0,0,5658,0,64,0,
3.1467,299.4,-294.9,-24.9,78.0,95.7,-47.4,-181.8,0,0,5664,0,65,0,
3.1500,282.0,-301.5,-1.2,87.0,94.5,-56.1,-183.9,0,0,5670,0,66,0,
3.1533,284.4,-310.8,-53.7,85.8,103.8,-41.1,-179.1,0,0,5676,0,67,0,
3.1567,291.6,-299.7,-33.3,88.8,98.4,-52.5,-177.0,0,0,5682,0,68,0,
3.1600,282.9,-309.0,-40.2,85.8,93.9,-55.2,-174.0,0,0,5688,0,69,0,
3.1633,278.7,-305.1,-31.8,86.7,92.1,-59.4,-178.5,0,0,5694,0,70,0,
3.1667,282.3,-308.1,-31.8,88.2,89.1,-59.1,-171.9,0,0,5700,0,71,0,
3.1700,293.1,-298.8,-27.3,81.6,96.9,-48.0,-174.9,0,0,5706,0,72,0,
3.1733,288.6,-295.2,-13.5,86.4,101.4,-48.9,-160.5,0,0,5712,0,73,0,
3.1767,273.3,-302.7,-46.8,65.7,95.4,-39.3,-167.1,0,0,5718,0,74,0,
3.1800,277.8,-316.2,-58.5,70.8,90.6,-80.1,-189.9,0,0,5724,0,75,0,
3.1833,269.7,-312.3,-12.9,78.3,92.4,-51.3,-168.6,0,0,5730,0,76,0,
3.1867,282.9,-297.6,-53.1,75.0,93.9,-56.4,-176.4,0,0,5736,0,77,0,
3.1900,274.5,-321.6,-58.5,73.2,87.0,-70.5,-199.5,0,0,5742,0,78,0,
3.1933,277.2,-315.3,-52.8,67.8,95.7,-53.1,-185.7,0,0,5748,0,79,0,
3.1967,268.8,-323.7,-42.0,74.4,87.9,-55.8,-192.9,0,0,5754,0,80,0,
3.2000,261.3,-335.1,-57.3,79.8,76.5,-84.6,-193.5,0,0,5760,0,81,0,
3.2033,264.6,-338.1,-48.3,76.2,86.7,-66.9,-201.3,0,0,5766,0,82,0,
3.2067,242.1,-355.2,-70.2,67.5,84.9,-73.5,-216.3,0,0,5772,0,83,0,
3.2100,246.6,-338.1,-66.9,70.8,81.9,-77.1,-210.3,0,0,5778,0,84,0,
3.2133,266.1,-318.0,-54.6,70.8,80.7,-72.6,-189.0,0,0,5784,0,85,0,
3.2167,257.7,-317.7,-55.2,70.2,79.8,-74.4,-194.1,0,0,5790,0,86,0,
3.2200,270.3,-294.6,-46.8,70.2,90.0,-55.8,-171.3,0,0,5796,0,87,0,
3.2233,267.0,-296.1,-38.7,72.0,84.9,-55.5,-169.8,0,0,5802,0,88,0,
3.2267,271.8,-288.9,-31.5,80.4,84.6,-49.8,-157.5,0,0,5808,0,89,0,
3.2300,266.1,-273.6,-38.1,72.9,84.9,-52.5,-156.9,0,0,5814,0,90,0,
3.2333,259.2,-268.8,-19.5,80.7,85.2,-50.1,-147.9,0,0,5820,0,91,0,
3.2367,246.9,-281.7,-45.0,77.7,83.1,-63.9,-160.5,0,0,5826,0,92,0,
3.2400,248.7,-271.5,-31.8,73.5,84.6,-59.4,-149.1,0,0,5832,0,93,0,
3.2433,252.6,-260.4,-53.7,73.5,82.5,-59.4,-147.0,0,0,5838,0,94,0,
3.2467,238.2,-259.2,-39.6,75.3,93.3,-44.7,-108.3,0,0,5844,0,95,0,
3.2500,228.6,-246.0,-20.4,86.4,88.5,-61.2,-149.7,0,0,5850,0,96,0,
3.2533,240.0,-251.7,-36.9,68.4,92.7,-41.4,-117.3,0,0,5856,0,97,0,
3.2567,231.6,-250.5,-43.2,69.0,93.9,-41.7,-117.0,0,0,5862,0,98,0,
3.2600,215.4,-254.7,-18.6,66.9,91.5,-33.0,-125.4,0,0,5868,0,99,0,
3.2633,208.5,-251.4,-32.7,74.7,78.6,-86.7,-138.6,0,0,5874,0,100,0,
3.2667,196.5,-252.0,-61.8,69.3,78.0,-55.8,-109.5,0,0,5880,0,101,0,
3.2700,208.2,-240.6,-28.5,69.9,88.5,-58.2,-114.0,0,0,5886,0,102,0,
3.2733,204.3,-238.5,-36.6,71.4,81.9,-65.4,-120.3,0,0,5892,0,103,0,
3.2767,198.3,-239.4,-42.9,67.5,84.6,-59.1,-101.4,0,0,5898,0,104,0,
3.2800,196.8,-233.1,-46.2,71.7,84.0,-59.7,-109.5,0,0,5904,0,105,0,
3.2833,191.7,-225.9,-37.5,75.0,82.8,-60.3,-120.0,0,0,5910,0,106,0,
3.2867,190.8,-228.9,-28.5,78.3,87.0,-62.4,-117.9,0,0,5916,0,107,0,
3.2900,187.2,-236.7,-24.9,79.8,85.2,-57.6,-117.3,0,0,5922,0,108,0,
3.2933,189.6,-230.4,-24.9,82.2,82.2,-58.2,-123.6,0,0,5928,0,109,0,
3.2967,199.2,-223.2,-16.2,81.3,87.3,-52.2,-111.6,0,0,5934,0,110,0,
3.3000,190.5,-219.9,8.7,83.4,88.5,-53.7,-129.6,0,0,5940,0,111,0,
3.3033,178.5,-261.0,-51.3,76.2,79.2,-66.9,-144.3,0,0,5946,0,112,0,
3.3067,184.5,-248.1,-33.0,73.8,83.7,-63.6,-132.9,0,0,5952,0,113,0,
3.3100,180.6,-247.2,-38.7,69.0,84.0,-63.6,-130.5,0,0,5958,0,114,0,
3.3133,187.5,-249.6,-34.8,71.7,83.7,-68.1,-151.2,0,0,5964,0,115,0,
3.3167,170.7,-269.7,-50.4,71.7,76.5,-70.2,-157.8,0,0,5970,0,116,0,
3.3200,168.0,-268.2,-42.9,72.9,73.2,-91.5,-155.1,0,0,5976,0,117,0,
3.3233,171.0,-275.7,-43.8,75.6,75.0,-82.2,-176.1,0,0,5982,0,118,0,
3.3267,185.4,-260.7,-29.1,65.1,77.1,-84.3,-159.9,0,0,5988,0,119,0,
3.3300,185.7,-265.2,-40.8,68.4,82.8,-73.8,-159.0,0,0,5994,0,120,0,
3.3333,174.0,-266.1,-47.1,66.0,86.7,-60.6,-172.8,0,0,6000,0,121,0,
3.3367,182.4,-266.7,-19.2,77.1,80.4,-83.7,-168.9,0,0,6006,0,122,0,
3.3400,179.7,-266.1,-38.4,73.2,77.4,-94.2,-167.4,0,0,6012,0,123,0,
3.3433,185.4,-260.1,-40.8,73.2,92.4,-64.2,-160.5,0,0,6018,0,124,0,
3.3467,179.1,-252.6,-29.4,72.6,86.7,-75.3,-161.1,0,0,6024,0,125,0,
3.3500,188.7,-268.8,-45.6,70.8,85.8,-80.4,-170.1,0,0,6030,0,126,0,
3.3533,179.4,-275.1,-14.4,74.1,80.7,-80.1,-171.3,0,0,6036,0,127,0,
3.3567,179.7,-269.1,-39.3,68.4,86.4,-77.7,-175.5,0,0,6042,0,128,0,
3.3600,186.0,-274.8,-12.6,71.4,86.1,-77.7,-168.9,0,0,6048,0,129,0,
3.3633,194.1,-272.7,-37.2,73.5,91.2,-71.7,-168.6,0,0,6054,0,130,0,
3.3667,201.6,-265.5,-31.8,73.8,91.8,-69.6,-165.0,0,0,6060,0,131,0,
3.3700,197.4,-273.6,-31.8,72.3,95.1,-70.8,-161.7,0,0,6066,0,132,0,
3.3733,186.3,-279.9,-30.6,70.8,83.7,-81.9,-181.8,0,0,6072,0,133,0,
3.3767,192.0,-271.5,-34.5,72.9,88.8,-74.7,-176.4,0,0,6078,0,134,0,
3.3800,184.2,-273.0,-28.8,78.0,89.7,-72.9,-180.6,0,0,6084,0,135,0,
3.3833,186.9,-273.9,-28.2,80.7,81.3,-82.2,-178.2,0,0,6090,0,136,0,
3.3867,180.3,-295.5,-30.6,82.2,78.3,-85.8,-195.6,0,0,6096,0,137,0,
3.3900,180.9,-284.7,-28.8,71.7,83.1,-77.1,-161.1,0,0,6102,0,138,0,
3.3933,182.4,-292.5,-28.8,73.8,77.1,-84.9,-197.7,0,0,6108,0,139,0,
3.3967,190.2,-287.7,-22.5,63.6,80.1,-72.6,-178.8,0,0,6114,0,140,0,
3.4000,177.3,-298.8,-53.1,64.2,69.9,-88.8,-200.4,0,0,6120,0,141,0,
3.4033,174.9,-309.6,-33.9,60.3,65.4,-96.9,-195.0,0,0,6126,0,142,0,
3.4067,169.2,-304.8,-58.5,59.7,71.1,-75.0,-201.3,0,0,6132,0,143,0,
3.4100,165.3,-314.1,-48.0,61.2,63.9,-116.4,-204.0,0,0,6138,0,144,0,
3.4133,162.0,-315.9,-58.2,61.5,68.1,-105.0,-214.2,0,0,6144,0,145,0,
3.4167,149.7,-321.6,-31.8,62.1,58.2,-115.2,-220.2,0,0,6150,0,146,0,
3.4200,154.2,-334.5,-72.9,56.4,63.0,-107.7,-228.3,0,0,6156,0,147,0,
3.4233,150.3,-326.7,-73.8,53.4,57.0,-112.5,-218.7,0,0,6162,0,148,0,
3.4267,164.4,-324.9,-68.4,53.7,60.6,-103.5,-208.8,0,0,6168,0,149,0,
3.4300,165.6,-351.3,-71.4,50.4,60.9,-110.7,-221.1,0,0,6174,0,150,0,
3.4333,158.4,-338.7,-68.1,56.1,67.8,-95.7,-211.5,0,0,6180,0,151,0,
3.4367,158.7,-343.8,-72.3,49.5,63.3,-112.5,-219.0,0,0,6186,0,152,0,
3.4400,152.7,-344.1,-65.4,48.0,63.6,-111.6,-227.4,0,0,6192,0,153,0,
3.4433,157.8,-343.5,-84.6,54.0,69.9,-107.7,-225.6,0,0,6198,0,154,0,
3.4467,156.0,-338.1,-54.9,59.1,76.5,-96.6,-213.0,0,0,6204,0,155,0,
3.4500,160.5,-351.3,-66.0,55.2,72.0,-106.8,-210.6,0,0,6210,0,156,0,
3.4533,154.5,-337.2,-59.4,57.3,74.1,-93.9,-209.4,0,0,6216,0,157,0,
3.4567,176.4,-327.3,-60.3,68.7,76.5,-97.5,-206.1,0,0,6222,0,158,0,
3.4600,175.5,-321.0,-46.5,66.3,78.9,-88.2,-201.3,0,0,6228,0,159,0,
3.4633,175.2,-327.6,-57.9,58.2,77.4,-91.8,-205.2,0,0,6234,0,160,0,
3.4667,178.5,-318.0,-52.2,63.6,80.4,-84.3,-202.5,0,0,6240,0,161,0,
3.4700,183.3,-312.0,-45.3,67.2,81.3,-88.5,-203.1,0,0,6246,0,162,0,
3.4733,175.5,-319.8,-55.8,64.2,76.8,-93.9,-210.9,0,0,6252,0,163,0,
3.4767,170.7,-313.5,-23.7,68.4,72.0,-99.9,-212.1,0,0,6258,0,164,0,
3.4800,175.2,-312.9,-38.4,70.8,70.8,-90.9,-203.4,0,0,6264,0,165,0,
3.4833,182.1,-302.4,-53.1,66.0,78.6,-83.7,-203.7,0,0,6270,0,166,0,
3.4867,175.5,-288.6,-39.0,67.2,73.2,-98.4,-185.4,0,0,6276,0,167,0,
3.4900,176.4,-300.0,-45.3,66.9,74.1,-98.7,-215.1,0,0,6282,0,168,0,
3.4933,169.2,-298.5,-43.5,65.1,73.2,-75.9,-213.0,0,0,6288,0,169,0,
3.4967,183.0,-288.0,-7.8,74.4,72.9,-93.6,-200.1,0,0,6294,0,170,0,
3.5000,182.4,-284.7,-51.6,65.7,72.3,-99.3,-195.3,0,0,6300,0,171,0,
3.5033,182.4,-277.2,-38.4,64.8,78.3,-80.7,-201.3,0,0,6306,0,172,0,
3.5067,177.3,-271.8,-42.3,67.8,77.1,-85.2,-202.8,0,0,6312,0,173,0,
3.5100,178.2,-277.5,-42.6,67.5,71.7,-96.0,-204.0,0,0,6318,0,174,0,
3.5133,174.9,-280.2,-41.7,62.4,74.1,-84.3,-203.4,0,0,6324,0,175,0,
3.5167,178.5,-280.2,-32.7,68.7,70.8,-93.6,-197.7,0,0,6330,0,176,0,
3.5200,181.2,-272.1,-31.2,60.0,79.5,-85.5,-195.0,0,0,6336,0,177,0,
3.5233,168.9,-274.5,-33.3,65.4,73.2,-98.7,-198.0,0,0,6342,0,178,0,
3.5267,175.2,-275.1,-39.0,62.4,68.7,-101.7,-200.1,0,0,6348,0,179,0,
3.5300,172.2,-267.0,-11.1,68.7,72.9,-92.1,-198.6,0,0,6354,0,180,0,
3.5333,182.7,-264.9,-20.1,66.0,76.2,-94.2,-200.1,0,0,6360,0,181,0,
3.5367,177.6,-264.9,-39.6,68.1,71.1,-91.5,-196.8,0,0,6366,0,182,0,
3.5400,184.2,-261.0,-36.3,48.3,73.8,-93.3,-197.4,0,0,6372,0,183,0,
3.5433,179.4,-266.7,-35.4,50.4,71.4,-86.4,-199.5,0,0,6378,0,184,0,
3.5467,179.4,-260.1,-48.0,58.2,77.7,-88.2,-195.0,0,0,6384,0,185,0,
3.5500,181.2,-257.1,-41.1,55.5,72.3,-93.9,-191.7,0,0,6390,0,186,0,
3.5533,186.3,-265.8,-35.7,59.1,72.6,-94.8,-200.1,0,0,6396,0,187,0,
3.5567,178.2,-270.6,-32.4,60.3,73.5,-84.6,-192.6,0,0,6402,0,188,0,
3.5600,183.0,-258.6,-27.0,61.2,79.5,-80.1,-191.1,0,0,6408,0,189,0,
3.5633,183.6,-249.6,-23.4,61.2,78.0,-93.0,-190.5,0,0,6414,0,190,0,
3.5667,180.3,-268.5,-34.5,49.2,71.1,-95.7,-196.5,0,0,6420,0,191,0,
3.5700,177.6,-261.0,-39.6,55.5,77.4,-76.5,-193.2,0,0,6426,0,192,0,
3.5733,175.5,-263.1,-43.8,48.0,59.1,-119.1,-190.2,0,0,6432,0,193,0,
3.5767,170.1,-281.7,-52.2,51.0,66.0,-99.0,-199.2,0,0,6438,0,194,0,
3.5800,168.6,-269.7,-46.8,52.2,63.0,-102.6,-215.1,0,0,6444,0,195,0,
3.5833,184.2,-261.3,-43.8,54.9,67.8,-94.2,-188.4,0,0,6450,0,196,0,
3.5867,196.5,-241.5,-13.2,62.7,78.0,-84.3,-184.5,0,0,6456,0,197,0,
3.5900,185.4,-256.8,-51.0,52.5,70.5,-87.6,-191.1,0,0,6462,0,198,0,
3.5933,173.7,-254.1,-35.1,52.8,60.6,-99.6,-196.5,0,0,6468,0,199,0,
3.5967,155.7,-270.3,-37.2,54.6,55.8,-111.9,-204.9,0,0,6474,0,200,0,
3.6000,164.7,-263.4,-32.4,50.4,62.1,-99.3,-199.5,0,0,6480,0,201,0,
3.6033,172.2,-263.4,-50.1,54.9,65.4,-111.0,-199.8,0,0,6486,0,202,0,
3.6067,171.9,-275.4,-47.7,59.7,66.9,-99.6,-201.6,0,0,6492,0,203,0,
3.6100,174.0,-270.9,-47.7,49.2,69.9,-101.4,-201.0,0,0,6498,0,204,0,
3.6133,174.3,-271.5,-43.5,49.8,70.8,-97.5,-199.2,0,0,6504,0,205,0,
3.6167,175.2,-273.9,-39.0,54.0,68.7,-99.9,-204.3,0,0,6510,0,206,0,
3.6200,170.1,-273.6,-45.6,54.3,77.7,-93.3,-199.2,0,0,6516,0,207,0,
3.6233,160.8,-273.9,-37.2,56.4,72.6,-96.9,-208.8,0,0,6522,0,208,0,
3.6267,159.9,-266.1,-36.9,57.3,77.1,-97.8,-210.3,0,0,6528,0,209,0,
3.6300,174.9,-269.1,-46.5,59.7,72.6,-92.7,-205.5,0,0,6534,0,210,0,
3.6333,175.2,-257.1,-25.8,69.0,86.1,-76.5,-194.1,0,0,6540,0,211,0,
3.6367,167.1,-267.6,-41.7,65.4,63.6,-113.7,-207.0,0,0,6546,0,212,0,
3.6400,157.5,-273.9,-39.0,65.7,63.0,-107.4,-213.3,0,0,6552,0,213,0,
3.6433,162.6,-274.5,-56.4,60.3,59.7,-113.7,-208.8,0,0,6558,0,214,0,
3.6467,164.1,-264.9,-44.1,63.0,66.3,-108.6,-210.6,0,0,6564,0,215,0,
3.6500,162.3,-267.3,-53.7,62.7,69.0,-97.2,-205.2,0,0,6570,0,216,0,
3.6533,165.6,-259.2,-34.2,58.8,68.7,-103.8,-210.0,0,0,6576,0,217,0,
3.6567,166.8,-259.8,-43.5,57.6,72.9,-91.2,-207.6,0,0,6582,0,218,0,
3.6600,161.1,-261.6,-9.9,68.7,74.7,-88.8,-211.5,0,0,6588,0,219,0,
3.6633,171.9,-269.1,-73.8,61.8,76.5,-104.7,-176.1,0,0,6594,0,220,0,
3.6667,164.4,-262.2,-42.9,65.1,78.0,-95.4,-201.0,0,0,6600,0,221,0,
3.6700,168.6,-258.9,-47.4,66.6,78.6,-96.6,-207.6,0,0,6606,0,222,0,
3.6733,168.0,-250.8,-43.8,64.2,77.7,-92.4,-207.9,0,0,6612,0,223,0,
3.6767,166.8,-261.0,-37.8,69.9,77.1,-103.8,-219.6,0,0,6618,0,224,0,
3.6800,161.4,-256.2,-34.2,79.5,72.6,-101.7,-218.4,0,0,6624,0,225,0,
3.6833,163.8,-259.8,-38.7,73.2,68.1,-108.0,-212.7,0,0,6630,0,226,0,
3.6867,170.1,-258.0,-51.9,61.8,69.3,-96.3,-209.4,0,0,6636,0,227,0,
3.6900,175.8,-254.4,-39.3,74.4,72.6,-88.8,-199.5,0,0,6642,0,228,0,
3.6933,191.1,-236.1,-24.9,71.4,86.7,-80.1,-176.7,0,0,6648,0,229,0,
3.6967,182.1,-246.0,-30.9,72.3,84.0,-78.0,-183.6,0,0,6654,0,230,0,
3.7000,181.5,-243.6,-23.4,75.3,81.3,-85.8,-188.4,0,0,6660,0,231,0,
3.7033,174.9,-250.5,-18.6,77.4,89.7,-85.5,-202.8,0,0,6666,0,232,0,
3.7067,169.8,-258.3,-34.5,76.2,79.8,-94.2,-211.5,0,0,6672,0,233,0,
3.7100,183.3,-254.4,-41.4,75.6,90.9,-68.4,-192.3,0,0,6678,0,234,0,
3.7133,189.3,-246.3,-24.3,78.3,86.1,-93.3,-190.8,0,0,6684,0,235,0,
3.7167,180.9,-252.0,-43.5,69.9,92.1,-80.7,-191.4,0,0,6690,0,236,0,
3.7200,180.0,-254.7,-18.0,71.1,90.0,-88.5,-206.4,0,0,6696,0,237,0,
3.7233,171.3,-246.6,-29.4,64.8,85.2,-79.2,-198.3,0,0,6702,0,238,0,
3.7267,169.5,-264.3,-54.9,59.4,75.3,-93.9,-205.8,0,0,6708,0,239,0,
3.7300,172.8,-264.0,-51.0,64.2,79.2,-86.7,-204.3,0,0,6714,0,240,0,
3.7333,163.5,-261.0,-53.4,61.5,78.6,-84.3,-196.2,0,0,6720,0,241,0,
3.7367,173.4,-249.0,-39.0,62.1,75.6,-108.9,-194.7,0,0,6726,0,242,0,
3.7400,176.1,-252.3,-41.1,56.7,71.1,-92.1,-195.9,0,0,6732,0,243,0,
3.7433,179.7,-247.2,-47.4,58.2,75.3,-99.0,-195.6,0,0,6738,0,244,0,
3.7467,177.6,-250.2,-40.8,56.1,77.7,-94.2,-199.5,0,0,6744,0,245,0,
3.7500,163.8,-264.3,-35.1,56.4,70.8,-102.3,-205.5,0,0,6750,0,246,0,
3.7533,169.2,-256.8,-30.6,65.7,74.4,-96.6,-194.7,0,0,6756,0,247,0,
3.7567,180.0,-245.7,-54.6,56.1,80.7,-91.2,-195.0,0,0,6762,0,248,0,
3.7600,178.8,-258.9,-42.0,54.3,73.5,-100.5,-203.1,0,0,6768,0,249,0,
3.7633,174.6,-262.2,-54.0,52.8,76.5,-95.4,-207.0,0,0,6774,0,250,0,
3.7667,173.4,-259.8,-44.7,64.2,78.0,-90.3,-199.8,0,0,6780,0,251,0,
3.7700,186.0,-243.3,-32.7,58.2,91.5,-75.6,-185.7,0,0,6786,0,252,0,
3.7733,182.7,-246.6,-38.7,62.4,77.1,-107.1,-207.0,0,0,6792,0,253,0,
3.7767,184.5,-253.8,-27.6,64.2,72.9,-104.4,-202.8,0,0,6798,0,254,0,
3.7800,186.9,-245.7,-17.1,69.6,79.2,-91.5,-195.9,0,0,6804,0,255,0,
3.7833,204.9,-235.2,-46.5,70.5,87.3,-80.7,-184.2,0,0,6810,0,0,0,
3.7867,200.4,-230.4,-21.9,77.7,93.6,-69.6,-180.0,0,0,6816,0,1,0,
3.7900,194.4,-243.0,-35.4,65.1,78.6,-99.0,-192.0,0,0,6822,0,2,0,
3.7933,189.9,-230.7,-29.4,72.3,83.1,-90.3,-191.1,0,0,6828,0,3,0,
3.7967,186.0,-235.5,-29.4,68.7,80.4,-85.2,-202.5,0,0,6834,0,4,0,
3.8000,178.5,-239.7,-33.3,66.0,76.8,-88.8,-168.6,0,0,6840,0,5,0,
3.8033,176.7,-245.4,-18.3,60.6,73.2,-95.1,-199.2,0,0,6846,0,6,0,
3.8067,182.7,-242.4,-28.5,58.5,76.2,-97.2,-198.6,0,0,6852,0,7,0,
3.8100,174.6,-243.6,-41.7,54.0,72.9,-84.0,-208.2,0,0,6858,0,8,0,
3.8133,172.2,-256.5,-46.5,51.6,70.2,-116.7,-208.5,0,0,6864,0,9,0,
3.8167,171.0,-251.1,-45.6,57.6,70.8,-99.3,-208.8,0,0,6870,0,10,0,
3.8200,165.0,-258.3,-48.9,62.1,68.1,-99.3,-204.0,0,0,6876,0,11,0,
3.8233,160.8,-255.0,-42.9,59.1,75.9,-93.0,-207.9,0,0,6882,0,12,0,
3.8267,177.0,-249.3,-39.0,62.7,82.2,-82.8,-202.2,0,0,6888,0,13,0,
3.8300,167.4,-241.2,-8.1,62.1,81.3,-87.9,-205.2,0,0,6894,0,14,0,
3.8333,165.0,-274.8,-68.1,57.0,71.1,-110.1,-211.8,0,0,6900,0,15,0,
3.8367,170.1,-249.3,-27.0,59.4,73.2,-99.9,-207.9,0,0,6906,0,16,0,
3.8400,162.9,-255.3,-27.9,68.1,69.9,-102.9,-207.3,0,0,6912,0,17,0,
3.8433,181.2,-239.4,-46.8,59.4,80.1,-90.0,-198.0,0,0,6918,0,18,0,
3.8467,187.8,-247.8,-46.5,55.8,78.3,-90.9,-197.7,0,0,6924,0,19,0,
3.8500,188.1,-247.8,-41.1,54.6,78.6,-87.9,-198.6,0,0,6930,0,20,0,
3.8533,181.8,-234.9,-35.1,55.5,77.1,-90.9,-195.3,0,0,6936,0,21,0,
3.8567,187.8,-234.0,-36.9,60.3,83.1,-82.8,-195.0,0,0,6942,0,22,0,
3.8600,191.7,-234.3,-24.6,65.1,86.1,-73.2,-183.6,0,0,6948,0,23,0,
3.8633,193.5,-241.5,-33.6,63.0,84.9,-80.4,-199.5,0,0,6954,0,24,0,
3.8667,192.6,-237.9,-30.0,60.6,78.9,-81.0,-195.9,0,0,6960,0,25,0,
3.8700,173.7,-254.4,-35.7,60.0,76.8,-82.2,-203.4,0,0,6966,0,26,0,
3.8733,176.4,-252.3,-33.6,64.5,73.5,-102.9,-217.5,0,0,6972,0,27,0,
3.8767,190.8,-233.4,-39.6,60.9,81.9,-85.2,-193.2,0,0,6978,0,28,0,
3.8800,193.8,-228.9,-24.3,63.0,79.5,-84.3,-194.1,0,0,6984,0,29,0,
3.8833,190.8,-221.7,-24.0,65.1,78.3,-89.7,-172.8,0,0,6990,0,30,0,
3.8867,180.3,-238.2,-36.0,62.4,78.6,-87.9,-207.6,0,0,6996,0,31,0,
3.8900,181.8,-229.2,-19.8,62.7,85.8,-81.3,-201.0,0,0,7002,0,32,0,
3.8933,189.0,-229.8,-31.5,67.2,82.5,-81.3,-185.7,0,0,7008,0,33,0,
3.8967,187.2,-214.5,-9.6,71.7,84.0,-80.7,-177.6,0,0,7014,0,34,0,
3.9000,188.4,-213.6,-7.5,67.5,81.0,-78.0,-177.3,0,0,7020,0,35,0,
3.9033,185.4,-213.6,-42.3,61.8,78.6,-77.1,-172.5,0,0,7026,0,36,0,
3.9067,176.1,-210.6,-33.9,59.7,78.6,-65.1,-175.2,0,0,7032,0,37,0,
3.9100,173.4,-204.0,-31.5,63.0,75.9,-93.9,-167.1,0,0,7038,0,38,0,
3.9133,167.7,-204.0,-28.8,62.4,78.0,-77.4,-166.2,0,0,7044,0,39,0,
3.9167,160.2,-195.9,-25.8,67.8,82.2,-81.6,-156.6,0,0,7050,0,40,0,
3.9200,172.5,-176.7,-7.2,68.7,78.3,-78.3,-148.8,0,0,7056,0,41,0,
3.9233,163.2,-171.6,-12.0,66.6,76.5,-79.5,-147.9,0,0,7062,0,42,0,
3.9267,158.7,-180.6,-38.7,69.6,72.9,-81.3,-144.3,0,0,7068,0,43,0,
3.9300,157.5,-178.8,-18.0,70.8,73.2,-81.0,-134.7,0,0,7074,0,44,0,
3.9333,162.0,-169.2,-20.4,68.7,79.2,-70.8,-136.5,0,0,7080,0,45,0,
3.9367,160.5,-156.6,12.9,69.3,80.1,-73.2,-118.5,0,0,7086,0,46,0,
3.9400,164.1,-145.8,-13.8,71.1,86.4,-55.2,-103.5,0,0,7092,0,47,0,
3.9433,157.8,-156.0,-28.2,63.9,79.5,-75.0,-106.5,0,0,7098,0,48,0,
3.9467,156.6,-161.1,-18.6,60.9,80.7,-70.5,-113.4,0,0,7104,0,49,0,
3.9500,163.8,-163.5,-19.5,64.5,87.9,-65.7,-119.1,0,0,7110,0,50,0,
3.9533,156.9,-177.0,-9.9,67.5,84.6,-70.8,-131.1,0,0,7116,0,51,0,
3.9567,158.4,-184.2,-12.6,63.3,84.0,-76.2,-137.7,0,0,7122,0,52,0,
3.9600,158.1,-188.4,-32.1,59.4,75.3,-84.9,-149.1,0,0,7128,0,53,0,
3.9633,152.4,-202.8,-40.2,59.4,73.2,-90.9,-156.9,0,0,7134,0,54,0,
3.9667,164.1,-188.7,-27.9,60.9,79.8,-69.9,-146.1,0,0,7140,0,55,0,
3.9700,171.3,-179.4,-4.8,66.9,84.3,-66.6,-137.7,0,0,7146,0,56,0,
3.9733,182.4,-194.7,-19.5,61.8,88.2,-71.1,-142.8,0,0,7152,0,57,0,
3.9767,174.0,-183.9,-14.1,59.1,89.4,-63.3,-143.4,0,0,7158,0,58,0,
3.9800,175.2,-191.4,-21.0,69.9,91.2,-67.8,-141.0,0,0,7164,0,59,0,
3.9833,179.7,-201.0,-30.6,62.7,88.2,-54.0,-150.3,0,0,7170,0,60,0,
3.9867,184.5,-198.0,-21.3,71.4,88.8,-83.1,-149.7,0,0,7176,0,61,0,
3.9900,180.6,-196.2,-33.3,63.6,87.0,-70.5,-147.3,0,0,7182,0,62,0,
3.9933,170.4,-196.8,-25.8,62.4,83.1,-75.9,-153.0,0,0,7188,0,63,0,
3.9967,170.1,-197.7,-21.6,61.2,87.6,-59.7,-149.1,0,0,7194,0,64,0,
4.0000,180.6,-196.2,-4.2,65.1,82.8,-90.6,-156.9,0,0,7200,0,65,0,
4.0033,181.8,-189.6,-21.3,63.6,90.6,-73.5,-147.3,0,0,7206,0,66,0,
4.0067,187.5,-202.5,-21.6,61.8,93.3,-69.9,-144.9,0,0,7212,0,67,0,
4.0100,180.3,-192.0,7.8,69.6,84.6,-74.7,-152.4,0,0,7218,0,68,0,
4.0133,186.3,-207.0,-46.5,61.2,87.0,-78.6,-159.6,0,0,7224,0,69,0,
4.0167,178.8,-204.3,-28.8,78.0,85.5,-74.4,-132.6,0,0,7230,0,70,0,
4.0200,168.9,-207.6,-27.9,73.8,78.9,-88.2,-181.5,0,0,7236,0,71,0,
4.0233,162.9,-213.9,-30.6,66.6,71.4,-92.4,-169.2,0,0,7242,0,72,0,
4.0267,167.4,-225.0,-30.0,68.4,78.9,-88.5,-177.9,0,0,7248,0,73,0,
4.0300,174.6,-222.3,-30.9,64.2,80.7,-83.4,-159.3,0,0,7254,0,74,0,
4.0333,167.1,-231.9,-30.6,71.1,76.5,-85.8,-172.8,0,0,7260,0,75,0,
4.0367,167.1,-236.1,-19.2,69.3,76.2,-89.7,-177.9,0,0,7266,0,76,0,
4.0400,163.5,-230.7,-52.5,59.7,76.5,-81.9,-181.2,0,0,7272,0,77,0,
4.0433,162.0,-245.4,-52.5,65.7,73.2,-87.0,-177.9,0,0,7278,0,78,0,
4.0467,160.8,-236.1,-46.2,64.5,76.8,-89.7,-185.1,0,0,7284,0,79,0,
4.0500,170.7,-232.5,-42.0,69.3,79.8,-87.0,-173.7,0,0,7290,0,80,0,
4.0533,169.5,-235.2,-37.8,69.6,79.2,-79.5,-177.6,0,0,7296,0,81,0,
4.0567,175.5,-231.0,-34.5,70.2,76.8,-96.3,-170.4,0,0,7302,0,82,0,
4.0600,174.6,-225.0,-26.7,66.9,80.7,-87.6,-172.8,0,0,7308,0,83,0,
4.0633,179.4,-228.3,-13.2,69.6,81.9,-84.9,-172.8,0,0,7314,0,84,0,
4.0667,170.4,-234.9,-52.8,61.8,77.4,-91.5,-183.0,0,0,7320,0,85,0,
4.0700,154.8,-245.7,-38.1,64.2,77.1,-74.7,-189.6,0,0,7326,0,86,0,
4.0733,161.1,-246.6,-65.1,53.4,71.7,-107.7,-193.5,0,0,7332,0,87,0,
4.0767,153.9,-245.7,-38.1,52.2,73.8,-97.8,-192.0,0,0,7338,0,88,0,
4.0800,147.6,-248.7,-55.5,44.7,74.4,-89.4,-191.4,0,0,7344,0,89,0,
4.0833,153.0,-253.2,-45.9,49.2,68.1,-97.5,-189.3,0,0,7350,0,90,0,
4.0867,154.2,-247.8,-79.8,47.7,66.0,-105.3,-197.7,0,0,7356,0,91,0,
4.0900,150.9,-253.2,-59.4,43.5,64.8,-104.4,-192.9,0,0,7362,0,92,0,
4.0933,142.5,-237.3,-58.8,44.1,61.8,-102.9,-183.9,0,0,7368,0,93,0,
4.0967,143.4,-240.3,-54.0,40.8,57.6,-108.6,-189.9,0,0,7374,0,94,0,
4.1000,147.3,-242.1,-69.3,37.8,56.1,-104.4,-179.4,0,0,7380,0,95,0,
4.1033,148.5,-224.4,-53.7,45.9,68.4,-94.2,-168.3,0,0,7386,0,96,0,
4.1067,151.8,-213.3,-49.2,50.7,68.4,-88.8,-136.5,0,0,7392,0,97,0,
4.1100,151.8,-201.3,-35.4,61.5,68.7,-87.6,-150.9,0,0,7398,0,98,0,
4.1133,154.2,-194.4,-37.2,62.7,74.1,-80.4,-152.4,0,0,7404,0,99,0,
4.1167,156.3,-189.0,-36.0,67.2,73.5,-84.3,-139.2,0,0,7410,0,100,0,
4.1200,165.9,-168.6,-21.3,72.6,82.2,-63.0,-123.3,0,0,7416,0,101,0,
4.1233,165.0,-186.6,-12.6,66.6,73.2,-83.1,-123.0,0,0,7422,0,102,0,
4.1267,164.4,-177.0,-44.4,60.3,73.5,-79.5,-123.9,0,0,7428,0,103,0,
4.1300,159.9,-178.8,-42.9,65.1,69.9,-82.5,-126.9,0,0,7434,0,104,0,
4.1333,169.2,-163.2,-34.5,63.3,81.3,-66.0,-114.9,0,0,7440,0,105,0,
4.1367,164.4,-168.6,-31.5,66.0,79.5,-67.2,-113.1,0,0,7446,0,106,0,
4.1400,158.7,-167.7,-19.2,63.6,85.5,-57.6,-114.0,0,0,7452,0,107,0,
4.1433,161.7,-175.5,-18.9,74.1,84.9,-69.9,-111.9,0,0,7458,0,108,0,
4.1467,182.7,-170.4,-34.8,66.0,86.7,-61.5,-106.2,0,0,7464,0,109,0,
4.1500,172.8,-173.7,-11.7,76.8,92.4,-48.0,-99.9,0,0,7470,0,110,0,
4.1533,161.1,-190.8,-19.5,74.1,80.7,-69.3,-118.5,0,0,7476,0,111,0,
4.1567,167.7,-186.6,-48.6,69.3,78.3,-71.7,-126.9,0,0,7482,0,112,0,
4.1600,162.9,-173.4,-26.1,70.5,87.0,-56.4,-122.4,0,0,7488,0,113,0,
4.1633,175.2,-181.5,-32.1,60.9,85.8,-60.9,-141.6,0,0,7494,0,114,0,
4.1667,179.1,-195.3,-15.6,65.7,87.0,-76.5,-130.2,0,0,7500,0,115,0,
4.1700,189.0,-182.1,-27.6,73.2,91.8,-58.2,-123.6,0,0,7506,0,116,0,
4.1733,193.8,-170.1,11.4,83.1,89.1,-66.3,-127.2,0,0,7512,0,117,0,
4.1767,190.2,-187.5,-15.3,80.1,87.6,-62.1,-129.9,0,0,7518,0,118,0,
4.1800,190.8,-203.4,-39.6,62.4,86.4,-65.7,-139.5,0,0,7524,0,119,0,
4.1833,187.2,-206.7,-39.0,60.6,86.1,-67.5,-145.5,0,0,7530,0,120,0,
4.1867,185.4,-208.5,-29.1,64.5,84.0,-70.2,-146.4,0,0,7536,0,121,0,
4.1900,178.2,-220.5,-30.6,66.6,84.0,-80.1,-158.4,0,0,7542,0,122,0,
4.1933,183.6,-209.7,-33.9,65.4,90.6,-76.5,-150.9,0,0,7548,0,123,0,
4.1967,177.9,-222.9,-42.0,62.7,87.9,-75.6,-161.4,0,0,7554,0,124,0,
4.2000,179.1,-217.8,-28.5,63.3,79.2,-75.0,-141.9,0,0,7560,0,125,0,
4.2033,192.0,-216.9,-28.5,74.1,89.7,-73.5,-163.5,0,0,7566,0,126,0,
4.2067,189.9,-223.5,-30.9,72.9,90.0,-68.1,-150.3,0,0,7572,0,127,0,
4.2100,194.7,-207.9,-19.5,77.1,102.3,-59.1,-148.5,0,0,7578,0,128,0,
4.2133,193.2,-213.6,-28.5,75.0,94.8,-62.4,-150.0,0,0,7584,0,129,0,
4.2167,195.6,-204.6,-6.6,78.3,94.8,-64.8,-150.6,0,0,7590,0,130,0,
4.2200,191.4,-221.4,-25.2,82.2,93.3,-71.4,-159.3,0,0,7596,0,131,0,
4.2233,192.0,-234.6,-39.3,76.2,87.0,-80.7,-166.8,0,0,7602,0,132,0,
4.2267,189.6,-238.2,-23.1,78.3,91.8,-76.2,-171.3,0,0,7608,0,133,0,
4.2300,186.6,-235.8,-25.5,73.8,95.1,-64.5,-168.9,0,0,7614,0,134,0,
4.2333,190.8,-242.4,-33.6,73.8,87.6,-74.4,-168.6,0,0,7620,0,135,0,
4.2367,204.9,-221.4,-20.1,80.4,91.8,-70.8,-164.1,0,0,7626,0,136,0,
4.2400,194.1,-231.6,-0.9,79.5,89.7,-73.5,-157.8,0,0,7632,0,137,0,
4.2433,196.8,-231.9,0.3,81.6,87.9,-61.8,-154.2,0,0,7638,0,138,0,
4.2467,191.1,-232.2,-58.8,69.6,86.1,-73.2,-169.2,0,0,7644,0,139,0,
4.2500,193.8,-230.7,-23.1,65.1,80.7,-95.4,-169.8,0,0,7650,0,140,0,
4.2533,196.2,-232.8,-27.9,72.9,87.0,-77.7,-166.5,0,0,7656,0,141,0,
4.2567,195.6,-231.0,-30.9,72.0,89.1,-75.9,-161.7,0,0,7662,0,142,0,
4.2600,195.0,-243.6,-33.0,71.1,90.0,-76.8,-181.5,0,0,7668,0,143,0,
4.2633,199.2,-233.1,-22.8,72.3,91.8,-72.9,-162.6,0,0,7674,0,144,0,
4.2667,205.2,-225.3,-14.7,72.6,95.1,-66.3,-168.0,0,0,7680,0,145,0,
4.2700,196.2,-236.7,-31.2,75.0,87.9,-73.8,-175.8,0,0,7686,0,146,0,
4.2733,194.7,-236.4,-24.6,79.5,100.8,-58.8,-163.8,0,0,7692,0,147,0,
4.2767,199.5,-235.8,-23.7,76.8,92.1,-72.9,-165.3,0,0,7698,0,148,0,
4.2800,191.1,-251.4,-30.0,70.5,90.6,-75.6,-179.4,0,0,7704,0,149,0,
4.2833,180.0,-260.1,-26.4,69.0,83.4,-81.6,-179.1,0,0,7710,0,150,0,
4.2867,185.1,-254.1,-27.0,67.8,88.2,-78.0,-184.5,0,0,7716,0,151,0,
4.2900,192.3,-249.6,-42.3,64.2,82.5,-81.9,-174.3,0,0,7722,0,152,0,
4.2933,190.2,-251.4,-28.2,68.7,90.3,-75.3,-183.6,0,0,7728,0,153,0,
4.2967,177.6,-251.1,-27.6,74.7,85.5,-83.4,-189.3,0,0,7734,0,154,0,
4.3000,184.5,-267.6,-6.9,73.8,83.1,-96.6,-203.4,0,0,7740,0,155,0,
4.3033,185.7,-265.5,-57.6,64.5,87.0,-92.4,-191.1,0,0,7746,0,156,0,
4.3067,182.1,-279.6,-51.6,60.3,79.5,-96.0,-204.6,0,0,7752,0,157,0,
4.3100,169.5,-284.7,-60.0,58.8,74.1,-103.2,-213.0,0,0,7758,0,158,0,
4.3133,174.0,-281.1,-51.6,58.8,78.6,-104.4,-217.2,0,0,7764,0,159,0,
4.3167,180.3,-277.2,-48.6,65.7,84.6,-96.0,-210.9,0,0,7770,0,160,0,
4.3200,180.3,-280.2,-58.8,60.6,80.7,-97.2,-210.6,0,0,7776,0,161,0,
4.3233,183.6,-270.3,-29.4,75.0,85.8,-81.3,-198.0,0,0,7782,0,162,0,
4.3267,189.3,-262.5,-40.2,71.4,85.5,-91.2,-208.5,0,0,7788,0,163,0,
4.3300,190.8,-264.6,-46.2,69.9,87.0,-82.5,-201.6,0,0,7794,0,164,0,
4.3333,189.9,-268.2,-28.5,75.6,90.3,-81.3,-203.4,0,0,7800,0,165,0,
4.3367,189.6,-268.5,-39.6,78.3,93.0,-64.8,-196.8,0,0,7806,0,166,0,
4.3400,194.4,-273.3,-36.0,80.1,90.3,-102.6,-209.4,0,0,7812,0,167,0,
4.3433,198.3,-275.7,-31.2,82.8,91.8,-84.0,-198.3,0,0,7818,0,168,0,
4.3467,190.2,-272.7,-33.9,85.2,92.7,-88.8,-205.5,0,0,7824,0,169,0,
4.3500,191.1,-265.8,-34.5,81.0,90.9,-87.3,-200.7,0,0,7830,0,170,0,
4.3533,202.8,-252.9,-27.9,72.0,100.8,-69.3,-192.9,0,0,7836,0,171,0,
4.3567,194.1,-263.4,-33.0,67.8,93.9,-87.9,-192.6,0,0,7842,0,172,0,
4.3600,194.7,-267.9,-39.3,72.3,91.5,-85.5,-199.8,0,0,7848,0,173,0,
4.3633,198.3,-266.4,-27.0,78.3,105.3,-70.8,-192.6,0,0,7854,0,174,0,
4.3667,197.4,-258.9,-19.5,77.7,106.8,-68.4,-189.0,0,0,7860,0,175,0,
4.3700,193.8,-269.1,-47.4,71.7,100.8,-81.3,-193.5,0,0,7866,0,176,0,
4.3733,195.6,-263.1,-39.9,75.0,107.1,-73.5,-189.3,0,0,7872,0,177,0,
4.3767,209.7,-269.1,-37.2,81.9,106.2,-66.3,-181.5,0,0,7878,0,178,0,
4.3800,199.5,-270.9,-38.4,83.4,104.4,-69.9,-187.8,0,0,7884,0,179,0,
4.3833,197.7,-279.0,-49.5,76.8,99.3,-75.0,-197.7,0,0,7890,0,180,0,
4.3867,205.2,-270.0,-37.2,79.2,101.4,-72.9,-195.0,0,0,7896,0,181,0,
4.3900,202.2,-282.3,-41.4,69.3,98.1,-72.9,-196.5,0,0,7902,0,182,0,
4.3933,196.2,-288.0,-40.2,68.4,101.4,-74.4,-199.2,0,0,7908,0,183,0,
4.3967,194.1,-280.2,-49.2,66.6,100.2,-74.4,-194.7,0,0,7914,0,184,0,
4.4000,195.9,-261.6,-43.5,69.6,106.2,-69.9,-195.9,0,0,7920,0,185,0,
4.4033,193.8,-264.6,-34.2,68.7,109.5,-60.0,-190.5,0,0,7926,0,186,0,
4.4067,194.1,-284.1,-44.1,67.2,104.1,-73.8,-192.3,0,0,7932,0,187,0,
4.4100,205.2,-279.3,-52.5,64.8,108.6,-64.2,-182.4,0,0,7938,0,188,0,
4.4133,208.2,-285.0,-38.7,66.3,102.6,-64.5,-177.0,0,0,7944,0,189,0,
4.4167,208.2,-292.5,-36.0,70.8,105.9,-60.9,-187.2,0,0,7950,0,190,0,
4.4200,197.7,-289.5,-39.6,67.5,99.9,-69.3,-186.6,0,0,7956,0,191,0,
4.4233,197.4,-284.4,-50.4,62.4,100.2,-63.3,-193.2,0,0,7962,0,192,0,
4.4267,196.5,-288.3,-47.4,63.0,94.8,-83.4,-207.3,0,0,7968,0,193,0,
4.4300,204.0,-293.4,-35.1,68.1,94.2,-70.5,-200.1,0,0,7974,0,194,0,
4.4333,207.9,-294.0,-33.0,67.8,95.1,-78.3,-199.2,0,0,7980,0,195,0,
4.4367,210.9,-288.6,-49.8,65.4,102.6,-66.9,-194.7,0,0,7986,0,196,0,
4.4400,198.9,-291.3,-32.7,66.3,100.5,-71.7,-198.0,0,0,7992,0,197,0,
4.4433,198.3,-293.1,-49.2,61.5,105.3,-63.0,-191.1,0,0,7998,0,198,0,
4.4467,209.7,-296.4,-39.3,70.2,101.1,-58.8,-186.3,0,0,8004,0,199,0,
4.4500,194.7,-297.9,-48.3,67.2,103.8,-44.4,-207.3,0,0,8010,0,200,0,
4.4533,202.8,-288.9,-42.6,71.1,96.0,-84.6,-200.7,0,0,8016,0,201,0,
4.4567,209.7,-279.9,-26.7,76.2,102.6,-55.8,-181.8,0,0,8022,0,202,0,
4.4600,213.3,-274.5,-26.7,70.5,106.5,-55.8,-178.5,0,0,8028,0,203,0,
4.4633,202.2,-285.9,-37.2,76.2,102.9,-50.4,-177.0,0,0,8034,0,204,0,
4.4667,202.5,-288.9,-34.8,74.1,106.8,-50.4,-182.7,0,0,8040,0,205,0,
4.4700,214.8,-276.3,-15.9,80.1,106.5,-52.5,-172.2,0,0,8046,0,206,0,
4.4733,207.6,-275.4,-47.4,72.3,99.3,-60.9,-178.8,0,0,8052,0,207,0,
4.4767,205.2,-279.0,-28.2,83.7,99.0,-62.4,-183.9,0,0,8058,0,208,0,
4.4800,220.8,-263.7,-19.2,80.7,102.6,-59.1,-181.5,0,0,8064,0,209,0,
4.4833,230.1,-252.6,-12.6,88.2,106.8,-51.6,-166.2,0,0,8070,0,210,0,
4.4867,225.3,-251.7,-7.8,88.2,102.9,-48.3,-165.3,0,0,8076,0,211,0,
4.4900,216.9,-257.4,-7.5,81.6,98.4,-60.6,-175.5,0,0,8082,0,212,0,
4.4933,226.5,-240.0,-24.3,72.3,94.5,-56.4,-163.2,0,0,8088,0,213,0,
4.4967,217.2,-248.1,-11.7,75.0,94.8,-66.0,-173.1,0,0,8094,0,214,0,
4.5000,211.8,-249.3,-11.1,71.7,94.5,-54.0,-171.6,0,0,8100,0,215,0,
4.5033,222.3,-236.4,-7.8,73.5,100.8,-46.8,-155.7,0,0,8106,0,216,0,
4.5067,232.2,-228.3,0.3,72.6,100.2,-60.9,-169.5,0,0,8112,0,217,0,
4.5100,221.1,-232.8,-10.8,72.9,101.7,-52.5,-163.8,0,0,8118,0,218,0,
4.5133,214.8,-232.8,-5.4,68.4,98.1,-59.4,-164.7,0,0,8124,0,219,0,
4.5167,221.1,-228.3,-6.0,69.0,99.9,-54.3,-162.9,0,0,8130,0,220,0,
4.5200,222.6,-222.9,-17.1,77.1,107.1,-47.4,-165.0,0,0,8136,0,221,0,
4.5233,214.5,-216.6,5.1,80.4,105.9,-56.4,-160.8,0,0,8142,0,222,0,
4.5267,230.7,-210.9,-6.6,75.9,101.7,-52.5,-156.0,0,0,8148,0,223,0,
4.5300,224.4,-211.2,-0.9,74.4,109.2,-19.8,-151.2,0,0,8154,0,224,0,
4.5333,224.7,-222.3,-2.4,69.3,98.1,-57.3,-158.1,0,0,8160,0,225,0,
4.5367,217.2,-225.3,-9.3,66.6,90.3,-76.5,-161.7,0,0,8166,0,226,0,
4.5400,215.7,-229.2,-5.7,63.6,88.5,-61.2,-162.0,0,0,8172,0,227,0,
4.5433,227.1,-207.9,3.3,76.5,94.2,-54.3,-151.2,0,0,8178,0,228,0,
4.5467,229.2,-210.0,6.6,73.2,90.0,-58.8,-156.9,0,0,8184,0,229,0,
4.5500,222.9,-213.9,24.6,73.5,93.6,-60.0,-159.6,0,0,8190,0,230,0,
4.5533,227.4,-206.1,2.4,73.2,87.9,-58.5,-153.9,0,0,8196,0,231,0,
4.5567,213.0,-218.4,-2.1,63.6,92.7,-63.3,-170.4,0,0,8202,0,232,0,
4.5600,207.6,-243.9,-11.7,68.1,87.9,-68.4,-175.8,0,0,8208,0,233,0,
4.5633,222.6,-228.0,-21.0,63.6,96.0,-53.1,-171.0,0,0,8214,0,234,0,
4.5667,223.2,-225.3,-14.1,74.7,95.4,-57.3,-164.4,0,0,8220,0,235,0,
4.5700,221.1,-206.7,1.2,67.5,94.8,-57.3,-159.6,0,0,8226,0,236,0,
4.5733,216.9,-226.2,-29.4,63.0,89.4,-60.0,-163.2,0,0,8232,0,237,0,
4.5767,210.6,-237.9,-20.7,58.5,85.2,-69.6,-168.9,0,0,8238,0,238,0,
4.5800,210.9,-249.6,-23.1,62.4,85.2,-71.1,-171.6,0,0,8244,0,239,0,
4.5833,210.9,-234.6,-17.1,66.0,93.0,-71.1,-175.5,0,0,8250,0,240,0,
4.5867,222.6,-236.7,-15.6,70.5,95.7,-48.0,-166.8,0,0,8256,0,241,0,
4.5900,211.8,-228.9,-11.7,68.1,88.8,-76.2,-177.0,0,0,8262,0,242,0,
4.5933,220.2,-229.5,-15.9,68.7,92.4,-68.7,-167.4,0,0,8268,0,243,0,
4.5967,220.2,-220.5,-10.8,75.6,97.8,-66.0,-164.1,0,0,8274,0,244,0,
4.6000,223.5,-222.6,-2.7,75.0,99.0,-68.1,-168.3,0,0,8280,0,245,0,
4.6033,222.0,-214.2,0.3,75.9,98.1,-66.3,-167.4,0,0,8286,0,246,0,
4.6067,221.1,-227.7,-1.5,75.6,91.2,-70.8,-167.1,0,0,8292,0,247,0,
4.6100,225.3,-219.3,1.8,77.7,99.0,-63.9,-160.2,0,0,8298,0,248,0,
4.6133,224.1,-221.1,1.5,77.1,96.6,-59.1,-174.0,0,0,8304,0,249,0,
4.6167,215.7,-225.9,13.5,83.7,98.1,-65.4,-179.7,0,0,8310,0,250,0,
4.6200,218.7,-216.6,18.9,82.8,94.2,-68.4,-168.3,0,0,8316,0,251,0,
4.6233,213.3,-222.9,-39.0,71.1,98.7,-64.8,-179.7,0,0,8322,0,252,0,
4.6267,198.9,-231.9,-17.1,72.9,92.1,-55.5,-178.8,0,0,8328,0,253,0,
4.6300,214.5,-226.2,-19.2,70.5,91.5,-82.5,-170.7,0,0,8334,0,254,0,
4.6333,207.3,-230.7,-13.2,78.0,90.6,-72.0,-171.3,0,0,8340,0,255,0,
4.6367,217.2,-215.4,-1.8,80.7,97.5,-67.2,-161.1,0,0,8346,0,0,0,
4.6400,215.1,-218.7,3.6,81.3,95.7,-58.8,-167.1,0,0,8352,0,1,0,
4.6433,223.8,-209.7,12.3,76.5,93.6,-60.3,-153.3,0,0,8358,0,2,0,
4.6467,225.0,-212.4,2.1,80.7,97.2,-61.5,-170.1,0,0,8364,0,3,0,
4.6500,232.5,-213.0,3.6,83.1,98.4,-60.3,-155.1,0,0,8370,0,4,0,
4.6533,225.6,-217.5,6.0,80.7,89.4,-65.4,-154.8,0,0,8376,0,5,0,
4.6567,216.3,-220.5,-5.4,66.9,81.6,-76.2,-162.0,0,0,8382,0,6,0,
4.6600,211.8,-218.4,6.0,64.5,84.3,-79.5,-169.5,0,0,8388,0,7,0,
4.6633,213.9,-228.0,-4.2,61.8,85.5,-65.4,-161.1,0,0,8394,0,8,0,
4.6667,219.6,-228.6,-12.0,68.1,92.1,-62.1,-158.7,0,0,8400,0,9,0,
4.6700,212.4,-226.2,13.8,71.4,77.4,-77.1,-173.4,0,0,8406,0,10,0,
4.6733,220.5,-215.4,18.0,71.4,84.3,-62.4,-162.0,0,0,8412,0,11,0,
4.6767,219.9,-204.9,-29.7,71.7,90.6,-58.5,-157.5,0,0,8418,0,12,0,
4.6800,218.7,-215.4,-0.9,76.2,92.7,-57.9,-165.9,0,0,8424,0,13,0,
4.6833,226.5,-201.9,3.6,75.0,90.0,-64.5,-152.7,0,0,8430,0,14,0,
4.6867,227.4,-221.7,-8.4,70.2,89.4,-60.9,-163.2,0,0,8436,0,15,0,
4.6900,219.6,-210.6,-7.8,63.0,91.8,-60.9,-164.7,0,0,8442,0,16,0,
4.6933,216.3,-212.1,-1.5,72.6,90.6,-63.9,-168.6,0,0,8448,0,17,0,
4.6967,220.2,-221.4,6.3,69.6,90.6,-57.9,-160.5,0,0,8454,0,18,0,
4.7000,214.2,-217.2,12.6,71.4,88.2,-82.5,-171.6,0,0,8460,0,19,0,
4.7033,213.9,-220.8,1.8,78.0,90.3,-74.1,-173.1,0,0,8466,0,20,0,
4.7067,205.5,-245.1,-4.5,72.6,88.8,-72.9,-180.0,0,0,8472,0,21,0,
4.7100,192.0,-247.2,-19.2,69.0,88.5,-71.7,-185.4,0,0,8478,0,22,0,
4.7133,202.8,-231.6,-15.3,69.3,82.5,-83.1,-180.9,0,0,8484,0,23,0,
4.7167,205.5,-225.6,-6.9,69.9,90.3,-67.2,-167.1,0,0,8490,0,24,0,
4.7200,211.2,-217.8,1.8,71.1,84.0,-84.6,-180.0,0,0,8496,0,25,0,
4.7233,199.8,-220.8,-0.9,68.4,81.3,-66.6,-183.0,0,0,8502,0,26,0,
4.7267,203.1,-214.8,5.1,69.0,84.0,-94.2,-182.1,0,0,8508,0,27,0,
4.7300,201.6,-212.4,-15.0,69.3,90.0,-75.0,-177.0,0,0,8514,0,28,0,
4.7333,208.2,-212.7,0.6,70.5,97.2,-77.4,-173.7,0,0,8520,0,29,0,
4.7367,219.0,-200.1,23.1,78.9,102.6,-66.9,-171.3,0,0,8526,0,30,0,
4.7400,217.2,-202.2,-4.5,72.9,98.4,-74.4,-178.2,0,0,8532,0,31,0,
4.7433,204.6,-219.3,-2.4,72.3,99.9,-74.4,-188.4,0,0,8538,0,32,0,
4.7467,198.6,-224.1,-2.7,71.1,92.1,-77.1,-177.3,0,0,8544,0,33,0,
4.7500,201.0,-222.3,-1.2,78.9,92.7,-76.8,-174.9,0,0,8550,0,34,0,
4.7533,204.3,-213.6,13.8,75.3,93.9,-79.2,-173.7,0,0,8556,0,35,0,
4.7567,208.5,-214.5,7.5,81.3,101.1,-60.3,-173.7,0,0,8562,0,36,0,
4.7600,195.6,-215.4,29.4,84.3,95.7,-79.5,-171.9,0,0,8568,0,37,0,
4.7633,215.7,-210.6,18.0,89.1,99.6,-74.4,-173.1,0,0,8574,0,38,0,
4.7667,211.8,-219.0,0.6,79.8,94.5,-70.2,-178.8,0,0,8580,0,39,0,
4.7700,196.8,-231.9,20.1,86.7,86.7,-83.4,-189.9,0,0,8586,0,40,0,
4.7733,208.2,-226.5,-9.9,79.5,87.3,-81.9,-193.8,0,0,8592,0,41,0,
4.7767,209.1,-217.8,6.6,78.9,91.2,-76.8,-183.9,0,0,8598,0,42,0,
4.7800,207.0,-230.1,-4.5,74.1,90.9,-80.4,-182.7,0,0,8604,0,43,0,
4.7833,198.6,-228.6,-6.0,73.2,95.7,-78.0,-189.3,0,0,8610,0,44,0,
4.7867,188.1,-231.9,-7.2,64.8,90.0,-88.5,-195.3,0,0,8616,0,45,0,
4.7900,178.5,-253.5,-12.6,66.6,87.3,-88.8,-205.5,0,0,8622,0,46,0,
4.7933,183.3,-245.4,-10.8,69.0,87.3,-84.6,-196.2,0,0,8628,0,47,0,
4.7967,196.2,-226.2,-20.4,66.9,89.7,-76.2,-192.3,0,0,8634,0,48,0,
4.8000,191.7,-237.0,-10.2,71.1,81.9,-95.1,-200.4,0,0,8640,0,49,0,
4.8033,194.1,-223.2,1.5,71.1,85.2,-87.0,-188.4,0,0,8646,0,50,0,
4.8067,194.4,-234.0,-6.0,68.4,79.5,-90.3,-187.2,0,0,8652,0,51,0,
4.8100,194.4,-228.9,1.5,69.9,75.9,-92.1,-192.9,0,0,8658,0,52,0,
4.8133,186.9,-246.3,-10.5,63.0,79.8,-86.7,-207.6,0,0,8664,0,53,0,
4.8167,193.8,-234.3,-7.8,67.8,75.0,-94.8,-201.6,0,0,8670,0,54,0,
4.8200,180.3,-237.3,-9.6,61.2,73.5,-99.9,-207.6,0,0,8676,0,55,0,
4.8233,183.9,-245.7,-22.8,58.5,75.6,-98.7,-206.7,0,0,8682,0,56,0,
4.8267,181.5,-248.7,-12.0,64.2,79.8,-77.4,-213.3,0,0,8688,0,57,0,
4.8300,188.1,-243.0,-18.9,63.3,78.6,-104.1,-204.0,0,0,8694,0,58,0,
4.8333,184.5,-235.8,-20.4,57.0,81.6,-93.0,-205.5,0,0,8700,0,59,0,
4.8367,188.7,-231.6,-12.0,68.4,86.1,-83.7,-184.2,0,0,8706,0,60,0,
4.8400,186.9,-232.2,-23.1,70.5,90.0,-74.4,-191.1,0,0,8712,0,61,0,
4.8433,171.6,-250.2,-26.7,66.6,78.9,-83.4,-195.9,0,0,8718,0,62,0,
4.8467,178.8,-242.1,-9.6,71.7,77.7,-105.6,-207.6,0,0,8724,0,63,0,
4.8500,177.6,-243.0,-4.8,73.5,75.9,-103.8,-207.0,0,0,8730,0,64,0,
4.8533,190.5,-228.3,18.0,69.6,83.7,-93.6,-192.6,0,0,8736,0,65,0,
4.8567,195.0,-233.1,-45.3,66.3,87.0,-86.4,-190.8,0,0,8742,0,66,0,
4.8600,187.5,-233.1,-7.2,64.5,84.6,-90.9,-196.8,0,0,8748,0,67,0,
4.8633,182.7,-236.4,-6.3,66.0,89.7,-81.3,-196.8,0,0,8754,0,68,0,
4.8667,190.8,-235.5,-1.5,70.2,92.1,-73.2,-191.7,0,0,8760,0,69,0,
4.8700,195.3,-244.5,-30.0,70.2,87.9,-87.0,-194.4,0,0,8766,0,70,0,
4.8733,179.4,-231.6,-2.1,69.0,87.6,-81.9,-204.9,0,0,8772,0,71,0,
4.8767,184.5,-250.2,-23.1,64.2,83.1,-91.5,-209.7,0,0,8778,0,72,0,
4.8800,179.4,-241.8,-16.5,69.9,86.1,-86.1,-201.6,0,0,8784,0,73,0,
4.8833,171.3,-242.1,-14.1,69.3,83.1,-92.4,-210.0,0,0,8790,0,74,0,
4.8867,174.6,-248.7,-16.8,64.8,85.5,-88.2,-200.4,0,0,8796,0,75,0,
4.8900,173.1,-241.2,-3.9,63.9,84.0,-96.9,-202.2,0,0,8802,0,76,0,
4.8933,165.6,-254.7,-23.7,65.7,84.6,-80.1,-193.5,0,0,8808,0,77,0,
4.8967,177.0,-240.3,-20.4,65.1,80.4,-104.1,-210.9,0,0,8814,0,78,0,
4.9000,177.6,-240.0,-20.7,59.4,85.8,-90.9,-198.3,0,0,8820,0,79,0,
4.9033,168.9,-242.1,-15.6,61.5,81.3,-96.9,-211.8,0,0,8826,0,80,0,
4.9067,175.5,-250.2,-44.7,57.6,80.4,-101.7,-213.9,0,0,8832,0,81,0,
4.9100,177.6,-250.8,-27.6,57.6,77.1,-84.3,-213.3,0,0,8838,0,82,0,
4.9133,183.9,-249.3,-30.0,60.9,82.2,-80.7,-198.6,0,0,8844,0,83,0,
4.9167,184.8,-250.2,-9.3,62.7,75.9,-100.8,-216.3,0,0,8850,0,84,0,
4.9200,193.8,-240.9,-32.7,60.0,81.9,-94.2,-207.0,0,0,8856,0,85,0,
4.9233,178.8,-249.0,-24.9,63.0,79.5,-88.2,-209.1,0,0,8862,0,86,0,
4.9267,188.4,-243.9,-22.5,57.0,75.0,-102.0,-202.2,0,0,8868,0,87,0,
4.9300,194.1,-243.3,-11.7,63.3,82.5,-75.6,-199.2,0,0,8874,0,88,0,
4.9333,203.4,-237.9,4.2,68.4,81.9,-89.7,-199.2,0,0,8880,0,89,0,
4.9367,203.1,-234.3,-16.8,66.3,81.6,-86.1,-197.1,0,0,8886,0,90,0,
4.9400,199.2,-239.4,-16.8,64.2,76.8,-93.9,-203.1,0,0,8892,0,91,0,
4.9433,199.8,-236.4,-12.6,65.7,75.0,-88.5,-198.3,0,0,8898,0,92,0,
4.9467,198.3,-243.9,-4.2,69.3,79.8,-89.4,-195.3,0,0,8904,0,93,0,
4.9500,207.9,-234.6,-6.9,74.1,84.6,-80.7,-195.3,0,0,8910,0,94,0,
4.9533,197.1,-234.3,-30.0,63.0,84.9,-84.9,-197.1,0,0,8916,0,95,0,
4.9567,198.6,-251.4,-18.0,66.9,78.0,-90.3,-205.2,0,0,8922,0,96,0,
4.9600,207.3,-254.7,-28.8,64.5,81.9,-85.5,-204.9,0,0,8928,0,97,0,
4.9633,200.7,-235.2,-15.3,68.7,85.5,-78.0,-186.6,0,0,8934,0,98,0,
4.9667,198.3,-250.2,-6.9,75.6,87.0,-77.1,-199.2,0,0,8940,0,99,0,
4.9700,199.5,-252.9,-10.5,67.5,91.8,-89.7,-206.1,0,0,8946,0,100,0,
4.9733,198.9,-253.8,-30.0,60.6,90.9,-78.0,-198.6,0,0,8952,0,101,0,
4.9767,199.8,-254.4,-13.2,69.0,90.9,-75.9,-193.2,0,0,8958,0,102,0,
4.9800,191.1,-252.3,-20.7,65.7,91.8,-60.3,-192.6,0,0,8964,0,103,0,
4.9833,193.2,-253.8,-17.7,66.0,88.2,-104.7,-201.9,0,0,8970,0,104,0,
4.9867,202.2,-261.9,-25.2,69.0,90.9,-84.0,-197.1,0,0,8976,0,105,0,
4.9900,192.9,-264.9,-23.7,63.9,89.7,-88.5,-204.3,0,0,8982,0,106,0,
4.9933,192.3,-270.3,-27.0,68.4,87.3,-87.3,-210.6,0,0,8988,0,107,0,
4.9967,192.3,-266.1,-23.4,68.4,89.7,-90.3,-213.6,0,0,8994,0,108,0,
5.0000,188.7,-267.9,-14.7,61.5,88.2,-76.2,-213.3,0,0,9000,0,109,0,
5.0033,190.5,-257.1,-12.6,66.9,89.7,-94.8,-209.4,0,0,9006,0,110,0,
5.0067,193.8,-252.9,-18.0,72.3,93.9,-83.1,-200.1,0,0,9012,0,111,0,
5.0100,193.8,-252.3,13.2,67.2,97.5,-78.6,-204.3,0,0,9018,0,112,0,
5.0133,208.2,-243.0,-4.5,70.2,98.1,-73.8,-189.9,0,0,9024,0,113,0,
5.0167,199.5,-246.6,-14.4,75.0,98.1,-77.7,-198.0,0,0,9030,0,114,0,
5.0200,206.4,-252.9,-0.3,77.7,98.4,-72.3,-196.8,0,0,9036,0,115,0,
5.0233,196.5,-248.1,5.4,77.4,93.9,-69.6,-209.4,0,0,9042,0,116,0,
5.0267,214.5,-244.5,-14.4,66.6,95.4,-73.8,-196.2,0,0,9048,0,117,0,
5.0300,216.6,-244.2,-17.4,69.6,100.5,-66.3,-197.4,0,0,9054,0,118,0,
5.0333,222.0,-249.6,-4.2,70.5,103.5,-72.6,-197.4,0,0,9060,0,119,0,
5.0367,219.0,-261.6,-10.2,73.2,102.9,-72.6,-198.0,0,0,9066,0,120,0,
5.0400,220.8,-248.7,-5.7,73.8,99.0,-73.2,-200.1,0,0,9072,0,121,0,
5.0433,221.7,-245.4,-5.4,75.3,100.2,-70.5,-205.5,0,0,9078,0,122,0,
5.0467,222.9,-250.5,-2.1,77.4,100.8,-70.2,-194.1,0,0,9084,0,123,0,
5.0500,225.9,-248.4,17.7,80.1,108.3,-63.0,-189.0,0,0,9090,0,124,0,
5.0533,224.4,-252.0,-4.8,72.6,101.7,-69.0,-198.3,0,0,9096,0,125,0,
5.0567,221.7,-246.3,-5.1,74.4,95.4,-76.5,-202.2,0,0,9102,0,126,0,
5.0600,225.9,-251.4,5.1,76.5,102.6,-66.3,-191.7,0,0,9108,0,127,0,
5.0633,231.6,-247.5,8.4,77.4,110.1,-59.1,-187.8,0,0,9114,0,128,0,
5.0667,233.7,-254.7,-3.6,82.2,109.2,-56.7,-192.6,0,0,9120,0,129,0,
5.0700,219.3,-255.3,-9.0,83.7,101.7,-74.4,-198.0,0,0,9126,0,130,0,
5.0733,215.1,-271.8,-6.3,75.0,100.8,-54.6,-209.4,0,0,9132,0,131,0,
5.0767,209.4,-264.3,2.7,79.8,90.9,-86.1,-219.0,0,0,9138,0,132,0,
5.0800,218.1,-266.7,-23.1,66.9,93.6,-87.6,-218.4,0,0,9144,0,133,0,
5.0833,214.5,-258.3,-24.9,69.9,98.4,-74.7,-220.2,0,0,9150,0,134,0,
5.0867,212.7,-275.1,-26.1,77.1,93.6,-67.5,-204.9,0,0,9156,0,135,0,
5.0900,214.5,-267.6,-13.5,79.2,90.6,-87.9,-216.6,0,0,9162,0,136,0,
5.0933,220.5,-263.7,-15.6,75.3,92.7,-81.0,-224.1,0,0,9168,0,137,0,
5.0967,210.6,-265.5,-18.0,79.2,85.2,-85.8,-224.7,0,0,9174,0,138,0,
5.1000,215.7,-269.4,-14.1,79.8,89.4,-89.7,-222.3,0,0,9180,0,139,0,
5.1033,200.7,-272.7,2.4,77.4,90.9,-82.8,-219.9,0,0,9186,0,140,0,
5.1067,202.2,-274.8,-7.5,81.6,87.9,-84.9,-217.8,0,0,9192,0,141,0,
5.1100,221.7,-259.2,-8.1,84.0,102.0,-56.4,-191.7,0,0,9198,0,142,0,
5.1133,213.9,-269.1,-9.0,85.2,89.1,-82.2,-208.5,0,0,9204,0,143,0,
5.1167,211.8,-278.1,-24.3,75.9,91.8,-72.0,-207.3,0,0,9210,0,144,0,
5.1200,213.9,-266.1,-8.1,77.1,98.1,-70.2,-211.2,0,0,9216,0,145,0,
5.1233,204.0,-271.2,-18.0,75.0,91.5,-74.7,-209.4,0,0,9222,0,146,0,
5.1267,212.7,-265.2,-21.9,72.3,90.3,-78.3,-207.0,0,0,9228,0,147,0,
5.1300,210.6,-262.2,-19.5,67.8,89.1,-76.5,-214.5,0,0,9234,0,148,0,
5.1333,207.6,-265.2,-3.9,67.5,90.0,-67.5,-212.4,0,0,9240,0,149,0,
5.1367,214.5,-255.9,-6.9,66.9,90.9,-70.8,-211.8,0,0,9246,0,150,0,
5.1400,216.0,-269.1,-20.7,63.9,91.5,-54.6,-209.7,0,0,9252,0,151,0,
5.1433,215.4,-269.1,-9.3,68.4,84.9,-93.6,-215.7,0,0,9258,0,152,0,
5.1467,206.4,-279.9,-16.8,66.3,89.7,-81.6,-220.2,0,0,9264,0,153,0,
5.1500,197.1,-273.0,-14.1,69.6,86.7,-85.5,-218.4,0,0,9270,0,154,0,
5.1533,200.1,-276.3,-19.8,66.0,84.9,-79.8,-219.3,0,0,9276,0,155,0,
5.1567,199.2,-281.7,-9.0,70.5,88.2,-81.0,-226.8,0,0,9282,0,156,0,
5.1600,213.3,-273.6,-26.1,61.5,88.5,-76.5,-210.9,0,0,9288,0,157,0,
5.1633,214.8,-279.6,-30.9,62.1,89.4,-74.4,-207.3,0,0,9294,0,158,0,
5.1667,203.1,-288.3,-32.4,60.3,85.5,-78.6,-215.7,0,0,9300,0,159,0,
5.1700,194.7,-285.0,-24.3,51.0,83.1,-87.3,-221.1,0,0,9306,0,160,0,
5.1733,206.4,-268.8,-20.1,59.4,91.2,-58.2,-207.9,0,0,9312,0,161,0,
5.1767,213.3,-270.3,-27.3,62.1,87.0,-75.9,-206.4,0,0,9318,0,162,0,
5.1800,213.9,-270.0,0.3,66.6,88.2,-78.3,-203.7,0,0,9324,0,163,0,
5.1833,222.3,-263.4,-16.8,72.3,88.5,-71.7,-195.6,0,0,9330,0,164,0,
5.1867,220.8,-266.4,-5.4,70.5,91.2,-71.4,-206.7,0,0,9336,0,165,0,
5.1900,209.4,-277.8,-10.8,70.8,86.1,-78.9,-212.1,0,0,9342,0,166,0,
5.1933,216.9,-266.4,6.0,77.7,90.9,-74.1,-210.0,0,0,9348,0,167,0,
5.1967,231.9,-263.4,-12.6,79.2,91.5,-74.4,-207.9,0,0,9354,0,168,0,
5.2000,223.2,-274.8,-16.8,80.7,89.7,-76.8,-211.2,0,0,9360,0,169,0,
5.2033,227.1,-271.2,-0.9,75.0,87.0,-72.3,-201.6,0,0,9366,0,170,0,
5.2067,226.8,-270.6,-2.7,77.7,85.2,-78.3,-204.0,0,0,9372,0,171,0,
5.2100,225.6,-276.9,-26.4,63.9,85.2,-72.3,-207.3,0,0,9378,0,172,0,
5.2133,225.6,-271.8,-11.7,68.4,92.1,-71.7,-205.5,0,0,9384,0,173,0,
5.2167,222.6,-280.5,-15.9,66.6,89.4,-57.0,-205.2,0,0,9390,0,174,0,
5.2200,215.7,-282.3,-20.1,67.2,83.4,-89.4,-210.3,0,0,9396,0,175,0,
5.2233,219.6,-283.2,-28.2,67.8,84.9,-85.2,-210.3,0,0,9402,0,176,0,
5.2267,219.3,-274.2,-11.1,68.7,82.5,-88.8,-220.5,0,0,9408,0,177,0,
5.2300,215.4,-275.1,-26.1,61.5,78.9,-87.9,-208.5,0,0,9414,0,178,0,
5.2333,203.1,-283.5,-17.1,66.3,77.4,-94.5,-220.5,0,0,9420,0,179,0,
5.2367,223.5,-276.6,-24.3,62.1,81.3,-87.3,-223.2,0,0,9426,0,180,0,
5.2400,208.5,-292.2,-18.0,64.5,81.6,-89.7,-220.8,0,0,9432,0,181,0,
5.2433,211.8,-299.1,-25.8,66.6,84.6,-87.0,-217.5,0,0,9438,0,182,0,
5.2467,208.2,-301.2,9.6,75.3,87.3,-77.1,-220.2,0,0,9444,0,183,0,
5.2500,215.1,-296.1,-30.6,66.6,83.1,-88.5,-217.8,0,0,9450,0,184,0,
5.2533,210.9,-290.7,-8.1,70.8,84.0,-88.5,-213.3,0,0,9456,0,185,0,
5.2567,214.5,-282.0,-38.4,72.9,89.4,-69.6,-208.5,0,0,9462,0,186,0,
5.2600,209.1,-290.7,-28.2,78.6,90.9,-77.4,-207.9,0,0,9468,0,187,0,
5.2633,209.7,-288.3,-18.6,77.1,95.7,-70.2,-212.4,0,0,9474,0,188,0,
5.2667,209.7,-283.5,-21.6,74.4,95.4,-72.0,-203.7,0,0,9480,0,189,0,
5.2700,205.5,-282.9,-15.9,68.7,92.7,-69.3,-196.2,0,0,9486,0,190,0,
5.2733,219.3,-283.2,-13.2,75.9,95.7,-81.3,-195.0,0,0,9492,0,191,0,
5.2767,213.6,-285.0,-15.0,75.0,93.0,-74.7,-199.5,0,0,9498,0,192,0,
5.2800,210.9,-300.9,-18.9,75.3,92.7,-76.2,-206.7,0,0,9504,0,193,0,
5.2833,217.8,-289.8,-10.5,81.6,84.9,-86.1,-217.2,0,0,9510,0,194,0,
5.2867,226.2,-273.3,-12.0,82.8,93.3,-70.8,-188.4,0,0,9516,0,195,0,
5.2900,221.4,-292.2,-8.7,75.6,86.1,-69.0,-200.7,0,0,9522,0,196,0,
5.2933,223.2,-280.5,9.0,81.9,88.5,-76.5,-197.4,0,0,9528,0,197,0,
5.2967,232.5,-278.7,-12.6,81.9,95.7,-86.1,-206.7,0,0,9534,0,198,0,
5.3000,225.6,-280.2,-5.1,77.1,91.8,-78.3,-204.0,0,0,9540,0,199,0,
5.3033,220.5,-293.4,8.7,87.0,83.7,-83.4,-213.3,0,0,9546,0,200,0,
5.3067,216.9,-296.4,-32.4,69.3,81.0,-80.7,-221.1,0,0,9552,0,201,0,
5.3100,228.6,-291.3,-13.8,75.0,91.8,-67.8,-208.2,0,0,9558,0,202,0,
5.3133,221.4,-289.5,-13.8,72.3,81.0,-88.8,-208.2,0,0,9564,0,203,0,
5.3167,210.0,-303.3,-17.7,71.1,89.7,-80.1,-219.0,0,0,9570,0,204,0,
5.3200,213.0,-303.6,-22.2,70.2,87.0,-83.7,-211.5,0,0,9576,0,205,0,
5.3233,231.0,-307.8,-15.0,71.4,84.9,-82.2,-222.0,0,0,9582,0,206,0,
5.3267,240.0,-297.6,-17.1,78.9,85.5,-78.0,-224.1,0,0,9588,0,207,0,
5.3300,229.2,-310.8,-4.2,72.3,86.4,-84.0,-236.1,0,0,9594,0,208,0,
5.3333,221.7,-312.9,-16.2,72.3,84.0,-85.2,-235.8,0,0,9600,0,209,0,
5.3367,216.6,-326.1,-26.1,72.6,80.7,-93.0,-244.8,0,0,9606,0,210,0,
5.3400,218.4,-325.8,-24.0,68.7,76.2,-94.8,-243.3,0,0,9612,0,211,0,
5.3433,232.5,-312.6,-9.0,80.7,83.1,-86.7,-233.1,0,0,9618,0,212,0,
5.3467,253.5,-290.4,-7.8,81.0,88.5,-73.5,-212.1,0,0,9624,0,213,0,
5.3500,246.3,-300.9,2.1,89.7,89.7,-75.0,-223.5,0,0,9630,0,214,0,
5.3533,246.3,-293.4,-2.7,79.8,93.0,-81.3,-225.6,0,0,9636,0,215,0,
5.3567,243.9,-318.6,-2.7,90.0,90.6,-75.6,-238.5,0,0,9642,0,216,0,
5.3600,256.2,-307.8,20.7,88.8,91.5,-77.1,-222.0,0,0,9648,0,217,0,
5.3633,244.5,-298.5,-11.1,87.0,102.9,-42.0,-221.1,0,0,9654,0,218,0,
5.3667,246.6,-302.1,0.3,87.0,93.3,-96.0,-219.6,0,0,9660,0,219,0,
5.3700,240.9,-306.0,0.3,87.0,92.4,-73.5,-229.5,0,0,9666,0,220,0,
5.3733,256.2,-302.7,-6.0,84.3,97.5,-69.6,-210.6,0,0,9672,0,221,0,
5.3767,246.3,-309.9,2.7,88.2,97.5,-70.5,-220.2,0,0,9678,0,222,0,
5.3800,247.2,-308.7,-18.9,89.4,97.8,-66.0,-217.5,0,0,9684,0,223,0,
5.3833,242.1,-308.1,-12.6,89.1,96.3,-70.5,-225.3,0,0,9690,0,224,0,
5.3867,241.5,-319.8,-3.6,82.5,92.1,-79.5,-231.6,0,0,9696,0,225,0,
5.3900,240.9,-311.7,-10.5,85.8,92.4,-69.9,-218.1,0,0,9702,0,226,0,
5.3933,249.3,-294.9,15.6,92.7,96.0,-64.2,-217.5,0,0,9708,0,227,0,
5.3967,249.9,-294.3,-12.9,90.6,92.1,-72.9,-225.3,0,0,9714,0,228,0,
5.4000,247.2,-288.3,2.4,93.3,96.6,-67.2,-217.5,0,0,9720,0,229,0,
5.4033,243.9,-288.0,0.3,90.0,92.1,-73.8,-226.8,0,0,9726,0,230,0,
5.4067,245.7,-301.2,2.7,92.1,91.5,-72.0,-225.0,0,0,9732,0,231,0,
5.4100,252.0,-287.7,16.8,88.5,100.2,-61.8,-209.7,0,0,9738,0,232,0,
5.4133,249.0,-303.6,16.2,86.1,99.3,-58.5,-214.2,0,0,9744,0,233,0,
5.4167,243.9,-277.5,8.4,85.8,90.0,-67.5,-214.5,0,0,9750,0,234,0,
5.4200,242.4,-300.3,-15.3,83.4,91.8,-67.5,-204.3,0,0,9756,0,235,0,
5.4233,228.0,-301.2,-12.6,79.2,84.3,-78.6,-223.2,0,0,9762,0,236,0,
5.4267,238.5,-302.7,-15.9,75.3,80.1,-81.3,-215.4,0,0,9768,0,237,0,
5.4300,225.3,-298.2,-15.6,75.6,84.9,-80.4,-223.5,0,0,9774,0,238,0,
5.4333,231.3,-288.3,-7.8,80.7,87.3,-72.9,-217.2,0,0,9780,0,239,0,
5.4367,234.6,-286.2,-10.2,79.8,94.5,-71.4,-218.7,0,0,9786,0,240,0,
5.4400,221.1,-295.5,-18.3,75.6,86.4,-69.9,-230.7,0,0,9792,0,241,0,
5.4433,227.4,-287.1,-9.6,78.3,76.8,-91.5,-234.9,0,0,9798,0,242,0,
5.4467,237.6,-271.5,0.3,84.9,89.1,-66.3,-219.0,0,0,9804,0,243,0,
5.4500,229.5,-266.1,-0.6,81.3,87.6,-95.4,-220.5,0,0,9810,0,244,0,
5.4533,233.7,-259.5,2.4,90.9,89.1,-76.8,-213.6,0,0,9816,0,245,0,
5.4567,232.5,-255.3,17.4,93.0,91.2,-84.9,-208.5,0,0,9822,0,246,0,
5.4600,225.0,-262.5,12.6,87.0,84.9,-78.9,-209.1,0,0,9828,0,247,0,
5.4633,234.6,-252.0,1.2,89.7,87.6,-76.8,-190.5,0,0,9834,0,248,0,
5.4667,228.6,-273.0,15.0,92.7,94.8,-62.7,-192.6,0,0,9840,0,249,0,
5.4700,236.1,-262.2,7.2,91.5,85.8,-88.5,-210.3,0,0,9846,0,250,0,
5.4733,225.0,-258.0,-14.7,93.9,84.3,-81.3,-205.8,0,0,9852,0,251,0,
5.4767,226.5,-260.1,-12.3,78.9,80.4,-92.1,-218.4,0,0,9858,0,252,0,
5.4800,232.2,-258.0,-0.3,81.3,93.0,-70.2,-204.9,0,0,9864,0,253,0,
5.4833,238.5,-257.7,-0.3,79.8,89.7,-78.9,-213.0,0,0,9870,0,254,0,
5.4867,242.7,-242.4,2.7,82.5,86.4,-77.1,-206.4,0,0,9876,0,255,0,
5.4900,241.8,-235.5,10.2,83.7,92.7,-70.8,-204.0,0,0,9882,0,0,0,
5.4933,240.3,-246.3,10.8,89.1,86.7,-73.2,-196.5,0,0,9888,0,1,0,
5.4967,233.7,-237.3,22.5,91.8,86.4,-78.6,-203.4,0,0,9894,0,2,0,
5.5000,239.4,-234.3,14.4,91.8,89.1,-75.0,-199.5,0,0,9900,0,3,0,
5.5033,231.6,-249.0,15.9,89.7,87.0,-72.3,-210.9,0,0,9906,0,4,0,
5.5067,244.2,-239.7,8.7,88.5,91.2,-69.3,-197.7,0,0,9912,0,5,0,
5.5100,243.0,-246.3,21.3,85.5,95.4,-64.2,-198.0,0,0,9918,0,6,0,
5.5133,248.1,-235.5,11.4,85.5,89.4,-66.0,-188.1,0,0,9924,0,7,0,
5.5167,246.9,-240.0,13.8,87.9,90.0,-69.6,-185.1,0,0,9930,0,8,0,
5.5200,241.2,-242.4,5.4,87.6,90.6,-64.5,-190.8,0,0,9936,0,9,0,
5.5233,238.5,-254.1,2.4,87.6,89.7,-66.6,-204.3,0,0,9942,0,10,0,
5.5267,228.9,-248.1,5.1,83.7,82.2,-65.7,-211.8,0,0,9948,0,11,0,
5.5300,238.5,-243.3,22.5,84.6,87.6,-81.3,-201.6,0,0,9954,0,12,0,
5.5333,230.7,-246.3,3.3,80.7,83.1,-90.6,-209.7,0,0,9960,0,13,0,
5.5367,228.6,-240.3,-14.7,72.0,89.4,-73.8,-214.2,0,0,9966,0,14,0,
5.5400,227.1,-261.9,-3.6,79.8,75.0,-93.3,-219.6,0,0,9972,0,15,0,
5.5433,228.6,-253.2,-0.3,83.7,74.4,-88.8,-215.4,0,0,9978,0,16,0,
5.5467,225.6,-256.8,17.1,86.7,78.9,-88.2,-222.6,0,0,9984,0,17,0,
5.5500,237.6,-246.9,3.0,74.7,89.1,-76.8,-210.9,0,0,9990,0,18,0,
5.5533,223.5,-256.5,19.5,77.7,84.9,-87.6,-219.6,0,0,9996,0,19,0,
5.5567,228.9,-263.4,-12.6,78.9,85.2,-80.4,-213.3,0,0,10002,0,20,0,
5.5600,233.1,-255.6,3.6,87.0,84.3,-82.2,-211.8,0,0,10008,0,21,0,
5.5633,235.2,-242.7,8.1,84.3,88.8,-72.3,-197.7,0,0,10014,0,22,0,
5.5667,236.4,-240.6,10.5,84.6,93.3,-66.3,-196.5,0,0,10020,0,23,0,
5.5700,229.2,-249.0,35.4,88.5,95.1,-75.0,-213.0,0,0,10026,0,24,0,
5.5733,228.9,-249.9,7.5,86.7,94.5,-78.9,-212.1,0,0,10032,0,25,0,
5.5767,228.0,-240.6,1.5,84.0,88.5,-77.4,-215.4,0,0,10038,0,26,0,
5.5800,242.1,-233.4,13.5,91.8,102.0,-63.6,-200.7,0,0,10044,0,27,0,
5.5833,231.9,-229.5,27.6,97.2,101.1,-67.5,-203.1,0,0,10050,0,28,0,
5.5867,243.3,-239.7,12.6,93.9,101.1,-70.5,-195.3,0,0,10056,0,29,0,
5.5900,224.1,-251.7,38.7,99.3,94.8,-75.3,-210.9,0,0,10062,0,30,0,
5.5933,234.0,-238.2,15.3,91.8,98.4,-74.4,-207.3,0,0,10068,0,31,0,
5.5967,248.4,-221.1,23.4,98.1,97.8,-66.0,-191.4,0,0,10074,0,32,0,
5.6000,252.9,-228.0,25.5,98.1,98.7,-73.5,-198.9,0,0,10080,0,33,0,
5.6033,241.2,-233.7,30.6,97.8,97.5,-68.7,-207.6,0,0,10086,0,34,0,
5.6067,239.1,-227.1,22.2,95.7,98.1,-71.4,-204.6,0,0,10092,0,35,0,
5.6100,244.8,-219.6,9.6,89.7,98.7,-54.0,-193.8,0,0,10098,0,36,0,
5.6133,249.0,-216.3,29.7,100.2,97.8,-84.9,-203.4,0,0,10104,0,37,0,
5.6167,241.5,-214.2,25.8,92.4,103.8,-59.7,-198.0,0,0,10110,0,38,0,
5.6200,246.0,-215.7,39.6,93.3,97.5,-76.8,-197.7,0,0,10116,0,39,0,
5.6233,241.5,-212.4,27.3,94.8,98.4,-60.3,-199.5,0,0,10122,0,40,0,
5.6267,245.4,-219.3,15.9,100.8,95.7,-76.8,-192.9,0,0,10128,0,41,0,
5.6300,233.1,-222.9,25.8,98.4,93.0,-67.8,-201.3,0,0,10134,0,42,0,
5.6333,240.0,-215.1,33.0,94.8,94.2,-69.9,-193.2,0,0,10140,0,43,0,
5.6367,246.6,-210.9,29.7,84.3,98.1,-63.6,-192.6,0,0,10146,0,44,0,
5.6400,238.8,-225.6,22.5,84.6,91.5,-66.6,-198.6,0,0,10152,0,45,0,
5.6433,231.6,-217.2,26.1,92.1,83.1,-76.5,-192.9,0,0,10158,0,46,0,
5.6467,243.3,-229.8,54.0,86.1,90.3,-66.0,-183.6,0,0,10164,0,47,0,
5.6500,247.8,-217.5,30.0,91.5,91.2,-65.1,-180.9,0,0,10170,0,48,0,
5.6533,245.1,-218.1,17.7,85.8,91.2,-67.5,-191.4,0,0,10176,0,49,0,
5.6567,237.9,-222.6,38.1,87.6,86.4,-73.5,-194.4,0,0,10182,0,50,0,
5.6600,229.2,-235.8,18.3,83.4,90.9,-70.5,-201.9,0,0,10188,0,51,0,
5.6633,234.6,-224.4,13.8,87.6,90.6,-64.8,-195.3,0,0,10194,0,52,0,
5.6667,231.9,-217.8,24.0,82.8,91.8,-65.1,-200.1,0,0,10200,0,53,0,
5.6700,235.5,-223.5,8.7,80.4,92.1,-65.1,-198.9,0,0,10206,0,54,0,
5.6733,231.6,-223.8,18.9,83.7,90.0,-69.9,-203.4,0,0,10212,0,55,0,
5.6767,232.8,-229.2,18.9,89.7,84.9,-71.7,-206.4,0,0,10218,0,56,0,
5.6800,221.1,-239.4,12.9,81.9,78.9,-78.9,-219.6,0,0,10224,0,57,0,
5.6833,237.0,-228.0,13.2,81.6,88.2,-68.1,-210.0,0,0,10230,0,58,0,
5.6867,229.2,-228.9,25.5,81.0,85.2,-73.2,-196.2,0,0,10236,0,59,0,
5.6900,223.2,-231.6,6.0,75.0,81.3,-67.5,-211.8,0,0,10242,0,60,0,
5.6933,232.5,-231.3,23.1,79.5,82.2,-89.4,-203.4,0,0,10248,0,61,0,
5.6967,231.0,-239.7,12.6,80.1,88.5,-83.7,-204.6,0,0,10254,0,62,0,
5.7000,225.9,-244.5,8.1,81.3,85.5,-74.7,-201.3,0,0,10260,0,63,0,
5.7033,230.1,-239.4,17.4,86.1,84.0,-81.3,-198.9,0,0,10266,0,64,0,
5.7067,222.9,-244.5,33.3,87.9,85.8,-75.9,-204.6,0,0,10272,0,65,0,
5.7100,216.9,-235.8,16.8,86.4,88.2,-82.8,-214.5,0,0,10278,0,66,0,
5.7133,219.9,-239.7,1.5,83.1,91.2,-80.7,-214.2,0,0,10284,0,67,0,
5.7167,225.0,-237.9,8.4,83.7,91.2,-74.1,-213.3,0,0,10290,0,68,0,
5.7200,216.9,-242.1,22.8,82.8,86.4,-74.7,-209.7,0,0,10296,0,69,0,
5.7233,221.4,-238.5,22.2,93.9,90.6,-73.8,-204.0,0,0,10302,0,70,0,
5.7267,235.5,-235.5,0.0,87.3,92.4,-71.7,-201.3,0,0,10308,0,71,0,
5.7300,234.6,-231.0,26.1,92.7,92.1,-69.6,-198.3,0,0,10314,0,72,0,
5.7333,231.0,-234.3,19.8,93.3,86.7,-72.9,-207.0,0,0,10320,0,73,0,
5.7367,231.6,-234.0,16.2,92.4,83.7,-73.2,-200.4,0,0,10326,0,74,0,
5.7400,226.5,-244.2,20.7,87.9,80.4,-82.2,-200.7,0,0,10332,0,75,0,
5.7433,224.7,-234.3,22.8,91.2,80.1,-82.8,-205.8,0,0,10338,0,76,0,
5.7467,231.6,-239.7,18.9,98.1,83.1,-81.3,-211.5,0,0,10344,0,77,0,
5.7500,234.9,-241.5,26.1,89.7,76.2,-87.6,-215.1,0,0,10350,0,78,0,
5.7533,219.3,-246.6,10.8,83.1,82.8,-68.1,-215.4,0,0,10356,0,79,0,
5.7567,234.9,-232.2,26.4,84.9,88.8,-71.1,-205.2,0,0,10362,0,80,0,
5.7600,235.8,-227.7,25.2,90.3,78.6,-97.2,-218.4,0,0,10368,0,81,0,
5.7633,236.1,-228.3,18.0,91.8,88.8,-74.4,-214.8,0,0,10374,0,82,0,
5.7667,230.1,-230.4,36.0,93.0,93.9,-72.9,-218.7,0,0,10380,0,83,0,
5.7700,234.0,-218.7,48.6,96.6,94.2,-66.0,-199.5,0,0,10386,0,84,0,
5.7733,223.2,-235.5,-3.9,83.4,93.0,-57.0,-221.1,0,0,10392,0,85,0,
5.7767,227.7,-237.0,1.8,83.7,86.4,-88.5,-207.3,0,0,10398,0,86,0,
5.7800,228.3,-227.4,14.4,85.5,89.4,-70.2,-210.0,0,0,10404,0,87,0,
5.7833,236.7,-228.9,3.6,85.2,92.1,-69.6,-205.2,0,0,10410,0,88,0,
5.7867,231.6,-223.5,24.6,86.7,88.5,-57.6,-205.5,0,0,10416,0,89,0,
5.7900,220.2,-243.0,12.3,77.4,85.2,-84.3,-212.1,0,0,10422,0,90,0,
5.7933,219.6,-238.5,24.3,85.5,83.1,-76.2,-213.0,0,0,10428,0,91,0,
5.7967,225.0,-250.8,5.4,86.4,86.1,-77.7,-215.4,0,0,10434,0,92,0,
5.8000,210.6,-254.4,26.7,92.1,80.1,-82.5,-229.5,0,0,10440,0,93,0,
5.8033,207.9,-256.5,-1.5,81.3,82.5,-88.8,-230.1,0,0,10446,0,94,0,
5.8067,198.3,-268.2,9.0,81.3,77.7,-92.4,-238.5,0,0,10452,0,95,0,
5.8100,212.7,-257.4,8.4,88.5,86.7,-82.8,-228.0,0,0,10458,0,96,0,
5.8133,221.4,-242.7,15.0,89.7,96.0,-71.7,-222.9,0,0,10464,0,97,0,
5.8167,223.5,-241.8,28.5,98.1,98.1,-75.0,-209.1,0,0,10470,0,98,0,
5.8200,212.7,-259.2,0.9,81.6,90.0,-77.4,-218.7,0,0,10476,0,99,0,
5.8233,218.7,-258.9,14.7,87.6,88.5,-77.7,-212.1,0,0,10482,0,100,0,
5.8267,222.6,-243.9,26.1,93.6,92.1,-70.8,-215.4,0,0,10488,0,101,0,
5.8300,225.9,-258.3,-8.7,87.0,89.1,-78.3,-197.1,0,0,10494,0,102,0,
5.8333,215.7,-249.9,29.1,98.4,90.3,-75.9,-214.8,0,0,10500,0,103,0,
5.8367,224.7,-246.0,15.9,88.8,85.2,-83.4,-225.9,0,0,10506,0,104,0,
5.8400,224.7,-238.5,14.4,92.7,87.6,-80.4,-228.9,0,0,10512,0,105,0,
5.8433,223.8,-259.2,9.0,85.5,85.5,-79.8,-219.6,0,0,10518,0,106,0,
5.8467,223.2,-240.0,27.0,90.9,89.4,-79.2,-226.8,0,0,10524,0,107,0,
5.8500,221.1,-241.2,17.7,91.2,88.2,-71.7,-216.3,0,0,10530,0,108,0,
5.8533,226.5,-246.3,27.9,95.1,90.9,-78.3,-222.6,0,0,10536,0,109,0,
5.8567,221.4,-248.1,21.6,90.0,90.6,-50.4,-211.5,0,0,10542,0,110,0,
5.8600,231.6,-247.2,11.1,88.8,86.7,-94.8,-216.6,0,0,10548,0,111,0,
5.8633,231.9,-246.0,12.6,90.0,91.5,-73.8,-211.2,0,0,10554,0,112,0,
5.8667,229.5,-252.0,14.4,84.0,91.5,-66.9,-212.1,0,0,10560,0,113,0,
5.8700,229.5,-249.0,13.5,88.5,86.4,-82.5,-207.9,0,0,10566,0,114,0,
5.8733,233.4,-241.2,29.7,90.0,90.0,-80.1,-209.7,0,0,10572,0,115,0,
5.8767,231.9,-240.0,17.7,90.6,91.2,-70.5,-200.1,0,0,10578,0,116,0,
5.8800,241.8,-232.2,50.1,96.9,96.6,-60.9,-190.8,0,0,10584,0,117,0,
5.8833,244.2,-229.8,5.7,97.5,92.4,-65.4,-193.8,0,0,10590,0,118,0,
5.8867,235.5,-223.5,27.3,100.5,92.1,-67.2,-196.8,0,0,10596,0,119,0,
5.8900,229.8,-232.5,48.6,91.5,89.1,-72.6,-192.3,0,0,10602,0,120,0,
5.8933,227.1,-213.3,10.8,86.4,90.9,-63.9,-185.1,0,0,10608,0,121,0,
5.8967,230.7,-223.2,21.9,96.6,88.2,-79.5,-189.3,0,0,10614,0,122,0,
5.9000,225.6,-197.4,36.9,94.5,92.1,-71.4,-182.7,0,0,10620,0,123,0,
5.9033,217.8,-207.6,27.6,93.0,93.9,-66.6,-177.0,0,0,10626,0,124,0,
5.9067,203.7,-203.7,15.0,88.5,83.7,-79.8,-179.4,0,0,10632,0,125,0,
5.9100,206.1,-198.3,21.0,87.3,89.1,-66.9,-170.4,0,0,10638,0,126,0,
5.9133,202.8,-184.5,29.4,88.8,83.7,-64.2,-160.5,0,0,10644,0,127,0,
5.9167,206.4,-180.6,27.6,93.3,90.6,-63.0,-153.0,0,0,10650,0,128,0,
5.9200,203.4,-172.2,20.7,91.8,92.7,-56.1,-136.8,0,0,10656,0,129,0,
5.9233,205.2,-154.5,32.7,95.7,97.8,-52.5,-134.7,0,0,10662,0,130,0,
5.9267,197.1,-150.9,35.1,98.7,93.3,-51.6,-132.3,0,0,10668,0,131,0,
5.9300,215.4,-148.2,40.2,100.2,100.2,-52.2,-116.1,0,0,10674,0,132,0,
5.9333,209.1,-148.2,30.6,92.7,94.2,-58.8,-131.4,0,0,10680,0,133,0,
5.9367,201.3,-147.9,36.6,97.8,97.8,-49.8,-123.6,0,0,10686,0,134,0,
5.9400,203.1,-150.0,39.3,100.2,94.8,-37.2,-121.5,0,0,10692,0,135,0,
5.9433,190.2,-149.4,36.3,95.1,85.5,-78.3,-114.9,0,0,10698,0,136,0,
5.9467,204.3,-150.9,57.6,100.8,96.9,-59.4,-117.0,0,0,10704,0,137,0,
5.9500,208.2,-146.1,42.9,100.8,101.4,-51.6,-112.5,0,0,10710,0,138,0,
5.9533,219.6,-128.1,40.2,108.0,107.4,-31.8,-101.1,0,0,10716,0,139,0,
5.9567,206.7,-137.7,32.4,105.0,99.9,-43.2,-99.3,0,0,10722,0,140,0,
5.9600,211.2,-132.9,39.3,109.5,102.9,-26.4,-90.9,0,0,10728,0,141,0,
5.9633,210.9,-130.8,43.8,108.0,106.5,-32.1,-81.6,0,0,10734,0,142,0,
5.9667,219.6,-123.3,64.5,102.9,105.3,-46.2,-97.5,0,0,10740,0,143,0,
5.9700,219.0,-130.5,37.8,109.2,108.3,-31.2,-94.2,0,0,10746,0,144,0,
5.9733,219.9,-136.8,39.0,106.2,114.6,-29.7,-102.6,0,0,10752,0,145,0,
5.9767,215.1,-130.2,63.9,113.4,109.2,-33.3,-100.2,0,0,10758,0,146,0,
5.9800,230.4,-121.5,52.5,112.2,113.1,-19.5,-88.5,0,0,10764,0,147,0,
5.9833,227.1,-118.5,57.9,111.9,102.9,-38.4,-96.9,0,0,10770,0,148,0,
5.9867,219.3,-132.3,49.8,107.7,99.6,-44.4,-102.9,0,0,10776,0,149,0,
